# 0-dist(Ang),1-dGtot,2-dGvac,3-dGele,4-dGdis,5-dGcav,6-dGvdw(kT)
13.5000 0.0000 0.0000 0.0000 0.0000 0.0000 0.0000
13.4000 0.0054 0.0000 1.8574 0.0243 -1.8763 -1.8520
13.3000 0.0047 0.0001 3.7108 0.0490 -3.7553 -3.7062
13.2000 0.0135 0.0002 5.5958 0.0742 -5.6566 -5.5824
13.1000 0.0358 0.0002 7.4610 0.0998 -7.5252 -7.4254
13.0000 0.0498 0.0003 9.3328 0.1258 -9.4090 -9.2833
12.9000 0.0818 0.0003 11.2193 0.1524 -11.2902 -11.1378
12.8000 0.1041 0.0002 13.0932 0.1766 -13.1660 -12.9893
12.7000 0.1062 -0.0000 14.9527 0.2012 -15.0477 -14.8465
12.6000 0.1191 -0.0004 16.8117 0.2280 -16.9202 -16.6923
12.5000 0.1322 -0.0010 18.7089 0.2531 -18.8292 -18.5761
12.4000 0.1439 -0.0018 20.5636 0.2814 -20.6998 -20.4183
12.3000 0.1427 -0.0028 22.4272 0.3054 -22.5876 -22.2822
12.2000 0.1182 -0.0039 24.2780 0.3341 -24.4904 -24.1563
12.1000 0.1123 -0.0053 26.1495 0.3606 -26.3937 -26.0331
12.0000 0.0969 -0.0064 27.9991 0.3919 -28.2884 -27.8966
11.9000 0.0649 -0.0104 29.8428 0.4233 -30.1915 -29.7683
11.8000 0.0298 -0.0136 31.6730 0.4519 -32.0822 -31.6303
11.7000 -0.0134 -0.0172 33.5096 0.4833 -33.9899 -33.5066
11.6000 -0.0390 -0.0211 35.3394 0.5144 -35.8724 -35.3580
11.5000 -0.0889 -0.0252 37.1968 0.5475 -37.8087 -37.2612
11.4000 -0.1085 -0.0307 39.0399 0.5785 -39.6965 -39.1180
11.3000 -0.1425 -0.0355 40.9066 0.6104 -41.6244 -41.0140
11.2000 -0.1585 -0.0412 42.7434 0.6421 -43.5031 -42.8610
11.1000 -0.1843 -0.0468 44.5941 0.6734 -45.4053 -44.7319
11.0000 -0.2105 -0.0542 46.4505 0.7021 -47.3091 -46.6070
10.9000 -0.2329 -0.0622 48.3122 0.7325 -49.2156 -48.4831
10.8000 -0.2820 -0.0701 50.1946 0.7620 -51.1688 -50.4068
10.7000 -0.3328 -0.0766 52.0554 0.7904 -53.1022 -52.3118
10.6000 -0.3734 -0.0848 53.9230 0.8210 -55.0328 -54.2119
10.5000 -0.4192 -0.0939 55.7841 0.8475 -56.9572 -56.1097
10.4000 -0.4657 -0.1031 57.6596 0.8766 -58.8991 -58.0225
10.3000 -0.5322 -0.1129 59.5362 0.9025 -60.8583 -59.9559
10.2000 -0.6026 -0.1230 61.3992 0.9293 -62.8086 -61.8794
10.1000 -0.6544 -0.1361 63.2543 0.9523 -64.7254 -63.7732
10.0000 -0.7053 -0.1487 65.1371 0.9806 -66.6752 -65.6947
9.9000 -0.7309 -0.1593 66.9963 1.0025 -68.5715 -67.5690
9.8000 -0.7350 -0.1694 68.8703 1.0264 -70.4634 -69.4370
9.7000 -0.7049 -0.1780 70.7375 1.0473 -72.3125 -71.2652
9.6000 -0.6828 -0.1837 72.5797 1.0719 -74.1516 -73.0796
9.5000 -0.6271 -0.1943 74.4367 1.0942 -75.9645 -74.8703
9.4000 -0.5589 -0.2095 76.2794 1.1183 -77.7478 -76.6295
9.3000 -0.4597 -0.2279 78.1309 1.1475 -79.5109 -78.3635
9.2000 -0.3299 -0.2501 79.9958 1.1783 -81.2545 -80.0763
9.1000 -0.1729 -0.2772 81.8942 1.2098 -83.0003 -81.7905
9.0000 -0.0472 -0.3084 83.7890 1.2487 -84.7773 -83.5287
8.9000 0.1071 -0.3414 85.6672 1.2906 -86.5100 -85.2194
8.8000 0.2387 -0.3756 87.5086 1.3382 -88.2332 -86.8950
8.7000 0.3203 -0.4098 89.3711 1.3902 -90.0318 -88.6417
8.6000 0.3925 -0.4390 91.2647 1.4454 -91.8793 -90.4339
8.5000 0.4090 -0.4675 93.1386 1.5036 -93.7663 -92.2627
8.4000 0.4117 -0.4981 95.0241 1.5620 -95.6769 -94.1149
8.3000 0.3738 -0.5318 96.9145 1.6245 -97.6337 -96.0093
8.2000 0.2941 -0.5653 98.7697 1.6866 -99.5974 -97.9108
8.1000 0.1872 -0.5976 100.6344 1.7486 -101.5987 -99.8501
8.0000 0.0733 -0.6278 102.4974 1.8113 -103.6082 -101.7968
7.9000 -0.0579 -0.6580 104.3649 1.8700 -105.6354 -103.7654
7.8000 -0.2316 -0.6892 106.2362 1.9292 -107.7082 -105.7790
7.7000 -0.4195 -0.7212 108.1165 1.9835 -109.7990 -107.8156
7.6000 -0.6260 -0.7544 109.9739 2.0317 -111.8777 -109.8460
7.5000 -0.8273 -0.7887 111.8463 2.0800 -113.9657 -111.8857
7.4000 -1.0245 -0.8259 113.6993 2.1201 -116.0188 -113.8987
7.3000 -1.2191 -0.8657 115.5565 2.1613 -118.0718 -115.9105
7.2000 -1.4472 -0.9085 117.4510 2.1960 -120.1862 -117.9902
7.1000 -1.6575 -0.9543 119.3559 2.2294 -122.2892 -120.0597
7.0000 -1.8508 -1.0034 121.2325 2.2600 -124.3403 -122.0803
6.9000 -2.0034 -1.0566 123.1134 2.2912 -126.3521 -124.0609
6.8000 -2.1164 -1.1138 125.0403 2.3264 -128.3699 -126.0435
6.7000 -2.1904 -1.1756 126.9364 2.3650 -130.3169 -127.9520
6.6000 -2.2083 -1.2423 128.8284 2.4098 -132.2048 -129.7950
6.5000 -2.1444 -1.3144 130.7112 2.4646 -134.0069 -131.5423
6.4000 -1.9905 -1.3922 132.6277 2.5218 -135.7485 -133.2267
6.3000 -1.7443 -1.4763 134.5134 2.5884 -137.3707 -134.7823
6.2000 -1.3499 -1.5671 136.3695 2.6599 -138.8131 -136.1531
6.1000 -0.8298 -1.6655 138.2566 2.7375 -140.1591 -137.4215
6.0000 -0.1944 -1.7722 140.1234 2.8279 -141.3742 -138.5463
5.9000 0.5015 -1.8880 141.9991 2.9315 -142.5417 -139.6102
5.8000 1.0651 -2.0139 143.8467 3.0577 -143.8259 -140.7682
5.7000 1.3820 -2.1508 145.6902 3.2110 -145.3690 -142.1580
5.6000 1.5524 -2.3000 147.5599 3.3838 -147.0920 -143.7082
5.5000 1.6112 -2.4626 149.4314 3.5707 -148.9291 -145.3583
5.4000 1.6385 -2.6402 151.2742 3.7729 -150.7693 -146.9964
5.3000 1.6088 -2.8342 153.1159 3.9866 -152.6601 -148.6735
5.2000 1.5589 -3.0463 154.9689 4.2169 -154.5815 -150.3646
5.1000 1.4555 -3.2783 156.8461 4.4557 -156.5686 -152.1129
5.0000 1.3424 -3.5322 158.7083 4.7083 -158.5427 -153.8344
4.9000 1.1790 -3.8101 160.5676 4.9723 -160.5513 -155.5790
4.8000 0.9347 -4.1141 162.4396 5.2529 -162.6443 -157.3914
4.7000 0.6536 -4.4461 164.3167 5.5452 -164.7627 -159.2175
4.6000 0.3034 -4.8081 166.2282 5.8521 -166.9695 -161.1173
4.5000 -0.1153 -5.2013 168.1518 6.1687 -169.2349 -163.0662
4.4000 -0.5867 -5.6262 170.0747 6.4970 -171.5329 -165.0359
4.3000 -1.1417 -6.0817 171.9816 6.8378 -173.8802 -167.0424
4.2000 -1.7798 -6.5638 173.8902 7.1868 -176.2938 -169.1070
4.1000 -2.4405 -7.0644 175.8253 7.5448 -178.7470 -171.2022
4.0000 -3.1301 -7.5680 177.7171 7.9144 -181.1946 -173.2803
3.9000 -3.8208 -8.0473 179.6151 8.2880 -183.6773 -175.3893
3.8000 -4.4802 -8.4561 181.5062 8.6681 -186.1993 -177.5312
3.7000 -5.0239 -8.7163 183.3976 9.0568 -188.7628 -179.7061
3.6000 -5.3433 -8.6980 185.2668 9.4497 -191.3626 -181.9129
3.5000 -5.1634 -8.1832 187.1154 9.8480 -193.9443 -184.0963
3.4000 -4.1423 -6.8040 188.9691 10.2474 -196.5555 -186.3081
3.3000 -1.6432 -3.9316 190.8160 10.6497 -199.1780 -188.5282
3.2000 3.4225 1.5263 192.6531 11.0571 -201.8147 -190.7576
3.1000 12.9821 11.5033 194.4883 11.4614 -204.4718 -193.0104
3.0000 30.5414 29.5007 196.3293 11.8691 -207.1586 -195.2895
2.9000 62.6042 62.0207 198.1328 12.2777 -209.8280 -197.5502
2.8000 121.6239 121.4794 199.8979 12.6838 -212.4380 -199.7542
2.7000 231.9926 232.3163 201.6556 13.0881 -215.0685 -201.9803
2.6000 443.4290 444.2316 203.4642 13.4894 -217.7572 -204.2677
2.5000 860.5695 861.8655 205.2441 13.8852 -220.4263 -206.5411
2.4000 1711.8536 1713.6479 207.0327 14.2796 -223.1074 -208.8278
2.3000 3515.1100 3517.4172 208.7697 14.6656 -225.7428 -211.0773
2.2000 7489.8959 7492.7087 210.5366 15.0457 -228.3956 -213.3499
2.1000 16618.6765 16621.9905 212.3226 15.4180 -231.0553 -215.6373
2.0000 38458.7720 38462.6134 214.1290 15.7819 -233.7456 -217.9638
1.9000 92750.8006 92755.1500 215.9325 16.1362 -236.4115 -220.2753
1.8000 232128.7842 232133.6766 217.7091 16.4819 -239.0455 -222.5636
1.7000 597301.3045 597306.7046 219.5185 16.8147 -241.7289 -224.9142
1.6000 1553796.7155 1553802.9556 221.3420 17.1337 -244.4057 -227.2720
1.5000 3974613.5908 3974620.4788 223.1828 17.4360 -247.0862 -229.6502
1.4000 9588735.8057 9588744.4987 225.0409 17.7254 -249.7825 -232.0572
1.3000 20619201.1232 20619208.8897 226.9250 17.9984 -252.5094 -234.5110
