# 0-dist(Ang),1-dGtot,2-dGvac,3-dGele,4-dGdis,5-dGcav,6-dGvdw(kT)
13.5000 0.0000 0.0000 0.0000 0.0000 0.0000 0.0000
13.4000 -0.0024 0.0000 0.4279 -0.0131 -0.4172 -0.4303
13.3000 -0.0071 0.0000 0.8523 -0.0257 -0.8336 -0.8593
13.2000 -0.0201 0.0000 1.2764 -0.0380 -1.2586 -1.2965
13.1000 -0.0334 0.0000 1.6910 -0.0509 -1.6735 -1.7244
13.0000 -0.0307 0.0000 2.1113 -0.0638 -2.0782 -2.1420
12.9000 -0.0314 0.0000 2.5272 -0.0773 -2.4812 -2.5585
12.8000 -0.0418 0.0000 2.9441 -0.0888 -2.8970 -2.9859
12.7000 -0.0547 0.0000 3.3409 -0.1020 -3.2935 -3.3955
12.6000 -0.0545 0.0000 3.7746 -0.1120 -3.7170 -3.8290
12.5000 -0.0585 0.0000 4.1854 -0.1222 -4.1216 -4.2438
12.4000 -0.0580 0.0000 4.5931 -0.1337 -4.5174 -4.6510
12.3000 -0.0536 0.0000 4.9945 -0.1456 -4.9024 -5.0480
12.2000 -0.0495 0.0000 5.4222 -0.1559 -5.3157 -5.4716
12.1000 -0.0461 0.0000 5.8488 -0.1681 -5.7267 -5.8948
12.0000 -0.0333 0.0000 6.2554 -0.1798 -6.1088 -6.2886
11.9000 -0.0274 -0.0020 6.6879 -0.1908 -6.5224 -6.7132
11.8000 -0.0177 -0.0056 7.1026 -0.2030 -6.9116 -7.1146
11.7000 -0.0131 -0.0104 7.5318 -0.2149 -7.3195 -7.5344
11.6000 -0.0267 -0.0158 7.9601 -0.2256 -7.7453 -7.9709
11.5000 -0.0446 -0.0218 8.4008 -0.2347 -8.1887 -8.4234
11.4000 -0.0532 -0.0286 8.8212 -0.2457 -8.5999 -8.8456
11.3000 -0.0602 -0.0362 9.2431 -0.2581 -9.0088 -9.2669
11.2000 -0.0816 -0.0439 9.6674 -0.2708 -9.4342 -9.7050
11.1000 -0.0996 -0.0519 10.0848 -0.2813 -9.8510 -10.1324
11.0000 -0.1053 -0.0601 10.5129 -0.2952 -10.2629 -10.5581
10.9000 -0.1258 -0.0644 10.9320 -0.3060 -10.6874 -10.9934
10.8000 -0.1384 -0.0651 11.3627 -0.3190 -11.1168 -11.4358
10.7000 -0.1463 -0.0623 11.7790 -0.3308 -11.5321 -11.8629
10.6000 -0.1436 -0.0570 12.2085 -0.3409 -11.9541 -12.2950
10.5000 -0.1447 -0.0474 12.6352 -0.3538 -12.3786 -12.7324
10.4000 -0.1399 -0.0356 13.0553 -0.3660 -12.7935 -13.1595
10.3000 -0.1472 -0.0242 13.4835 -0.3772 -13.2292 -13.6063
10.2000 -0.1544 -0.0155 13.8720 -0.3900 -13.6209 -14.0109
10.1000 -0.1368 -0.0093 14.2657 -0.4015 -13.9917 -14.3932
10.0000 -0.1396 -0.0065 14.6693 -0.4133 -14.3890 -14.8024
9.9000 -0.1465 -0.0059 15.0901 -0.4241 -14.8066 -15.2307
9.8000 -0.1555 -0.0074 15.4970 -0.4351 -15.2100 -15.6451
9.7000 -0.1718 -0.0143 15.9027 -0.4460 -15.6140 -16.0600
9.6000 -0.1796 -0.0216 16.3068 -0.4582 -16.0065 -16.4647
9.5000 -0.1842 -0.0287 16.7191 -0.4694 -16.4050 -16.8744
9.4000 -0.1940 -0.0374 17.1302 -0.4799 -16.8067 -17.2866
9.3000 -0.1913 -0.0447 17.5543 -0.4917 -17.2089 -17.7006
9.2000 -0.1971 -0.0481 17.9691 -0.5033 -17.6146 -18.1179
9.1000 -0.2017 -0.0488 18.3924 -0.5165 -18.0287 -18.5452
9.0000 -0.2006 -0.0459 18.8098 -0.5281 -18.4362 -18.9644
8.9000 -0.1935 -0.0409 19.2394 -0.5389 -18.8530 -19.3919
8.8000 -0.1872 -0.0334 19.6693 -0.5498 -19.2732 -19.8230
8.7000 -0.1662 -0.0255 20.0848 -0.5608 -19.6646 -20.2254
8.6000 -0.1604 -0.0182 20.5080 -0.5728 -20.0773 -20.6501
8.5000 -0.1552 -0.0123 20.9411 -0.5837 -20.5001 -21.0838
8.4000 -0.1687 -0.0098 21.3821 -0.5923 -20.9485 -21.5408
8.3000 -0.1720 -0.0082 21.8277 -0.6022 -21.3892 -21.9914
8.2000 -0.1860 -0.0100 22.2639 -0.6125 -21.8272 -22.4397
8.1000 -0.2035 -0.0136 22.6965 -0.6228 -22.2635 -22.8862
8.0000 -0.2234 -0.0201 23.1270 -0.6333 -22.6969 -23.3302
7.9000 -0.2620 -0.0299 23.5446 -0.6423 -23.1345 -23.7767
7.8000 -0.2981 -0.0390 23.9758 -0.6527 -23.5822 -24.2349
7.7000 -0.3166 -0.0485 24.3905 -0.6653 -23.9931 -24.6585
7.6000 -0.3365 -0.0577 24.8140 -0.6778 -24.4148 -25.0927
7.5000 -0.3789 -0.0669 25.2237 -0.6886 -24.8470 -25.5357
7.4000 -0.4126 -0.0752 25.6325 -0.7001 -25.2698 -25.9699
7.3000 -0.4250 -0.0815 26.0283 -0.7109 -25.6608 -26.3717
7.2000 -0.4370 -0.0863 26.4076 -0.7219 -26.0362 -26.7581
7.1000 -0.4333 -0.0921 26.7890 -0.7353 -26.3949 -27.1302
7.0000 -0.4382 -0.0979 27.1531 -0.7473 -26.7459 -27.4932
6.9000 -0.4277 -0.1027 27.5157 -0.7582 -27.0824 -27.8405
6.8000 -0.4114 -0.1094 27.8942 -0.7704 -27.4256 -28.1960
6.7000 -0.3882 -0.1181 28.2769 -0.7807 -27.7660 -28.5467
6.6000 -0.3506 -0.1272 28.6482 -0.7933 -28.0781 -28.8714
6.5000 -0.3148 -0.1367 29.0286 -0.8037 -28.4026 -29.2063
6.4000 -0.2701 -0.1471 29.4574 -0.8150 -28.7650 -29.5801
6.3000 -0.2382 -0.1578 29.8725 -0.8239 -29.1288 -29.9527
6.2000 -0.1886 -0.1691 30.2991 -0.8335 -29.4849 -30.3184
6.1000 -0.1557 -0.1818 30.7485 -0.8397 -29.8822 -30.7219
6.0000 -0.1278 -0.1961 31.2115 -0.8470 -30.2960 -31.1430
5.9000 -0.1040 -0.2118 31.6978 -0.8549 -30.7347 -31.5896
5.8000 -0.0812 -0.2289 32.2174 -0.8626 -31.2068 -32.0694
5.7000 -0.0673 -0.2474 32.7201 -0.8695 -31.6703 -32.5397
5.6000 -0.0627 -0.2686 33.2352 -0.8749 -32.1540 -33.0289
5.5000 -0.0704 -0.2928 33.7775 -0.8802 -32.6745 -33.5547
5.4000 -0.1050 -0.3200 34.3344 -0.8840 -33.2351 -34.1191
5.3000 -0.1694 -0.3502 34.9014 -0.8880 -33.8323 -34.7202
5.2000 -0.2492 -0.3836 35.4770 -0.8903 -34.4519 -35.3422
5.1000 -0.3484 -0.4204 36.0106 -0.8924 -35.0458 -35.9382
5.0000 -0.4575 -0.4596 36.5263 -0.8949 -35.6289 -36.5238
4.9000 -0.6045 -0.5019 37.0006 -0.8972 -36.2057 -37.1029
4.8000 -0.7438 -0.5475 37.4349 -0.8990 -36.7319 -37.6309
4.7000 -0.8651 -0.5966 37.8213 -0.8998 -37.1896 -38.0894
4.6000 -0.9523 -0.6500 38.1357 -0.8971 -37.5405 -38.4376
4.5000 -0.9713 -0.7086 38.4000 -0.8937 -37.7687 -38.6624
4.4000 -0.9193 -0.7728 38.6304 -0.8935 -37.8832 -38.7767
4.3000 -0.8096 -0.8433 38.8398 -0.8920 -37.9138 -38.8058
4.2000 -0.6820 -0.9208 39.0613 -0.8890 -37.9332 -38.8222
4.1000 -0.5498 -1.0062 39.2968 -0.8838 -37.9563 -38.8401
4.0000 -0.4014 -1.1004 39.5669 -0.8790 -37.9885 -38.8675
3.9000 -0.2561 -1.2052 39.8733 -0.8721 -38.0518 -38.9239
3.8000 -0.1158 -1.3216 40.2238 -0.8601 -38.1576 -39.0177
3.7000 0.0065 -1.4511 40.5921 -0.8475 -38.2867 -39.1342
3.6000 0.1410 -1.5954 41.0258 -0.8334 -38.4559 -39.2892
3.5000 0.2620 -1.7563 41.4984 -0.8139 -38.6660 -39.4799
3.4000 0.3916 -1.9357 42.0438 -0.7924 -38.9240 -39.7164
3.3000 0.4929 -2.1360 42.6420 -0.7639 -39.2491 -40.0130
3.2000 0.5338 -2.3599 43.3323 -0.7270 -39.7114 -40.4384
3.1000 0.5662 -2.6104 44.0667 -0.6881 -40.2017 -40.8898
3.0000 0.5347 -2.8908 44.8687 -0.6409 -40.8020 -41.4429
2.9000 0.4614 -3.2047 45.7321 -0.5866 -41.4792 -42.0658
2.8000 0.3370 -3.5557 46.6862 -0.5239 -42.2695 -42.7934
2.7000 0.1376 -3.9476 47.7068 -0.4511 -43.1703 -43.6214
2.6000 -0.1145 -4.3837 48.8107 -0.3709 -44.1702 -44.5411
2.5000 -0.4295 -4.8664 49.9715 -0.2824 -45.2518 -45.5342
2.4000 -0.8154 -5.3956 51.2115 -0.1844 -46.4465 -46.6309
2.3000 -1.2411 -5.9671 52.5068 -0.0778 -47.7027 -47.7805
2.2000 -1.7232 -6.5685 53.8527 0.0358 -49.0427 -49.0070
2.1000 -2.2486 -7.1730 55.2616 0.1590 -50.4956 -50.3367
2.0000 -2.7375 -7.7275 56.6973 0.2886 -51.9955 -51.7069
1.9000 -3.1089 -8.1311 58.1609 0.4230 -53.5613 -53.1384
1.8000 -3.1631 -8.1952 59.6353 0.5636 -55.1665 -54.6029
1.7000 -2.5438 -7.5648 61.1178 0.7116 -56.8082 -56.0966
1.6000 -0.5689 -5.5607 62.5930 0.8630 -58.4638 -57.6008
1.5000 4.1041 -0.8386 64.0917 1.0169 -60.1656 -59.1487
1.4000 14.2843 9.3943 65.5888 1.1773 -61.8757 -60.6984
1.3000 36.1693 31.3523 67.0898 1.3392 -63.6117 -62.2725
