# 0-dist(Ang),1-dGtot,2-dGvac,3-dGele,4-dGdis,5-dGcav,6-dGvdw(kT)
13.5000 0.0000 0.0000 0.0000 0.0000 0.0000 0.0000
13.4000 -0.0033 0.0001 0.0257 -0.0160 -0.0130 -0.0290
13.3000 0.0140 0.0002 0.0671 -0.0314 -0.0220 -0.0534
13.2000 0.0178 0.0005 0.0970 -0.0469 -0.0328 -0.0797
13.1000 0.0159 0.0009 0.1289 -0.0617 -0.0522 -0.1138
13.0000 0.0237 0.0010 0.1619 -0.0776 -0.0615 -0.1392
12.9000 0.0323 0.0007 0.1803 -0.0944 -0.0543 -0.1487
12.8000 0.0381 0.0003 0.2067 -0.1099 -0.0596 -0.1695
12.7000 0.0325 -0.0008 0.2312 -0.1267 -0.0719 -0.1986
12.6000 0.0331 -0.0020 0.2535 -0.1421 -0.0770 -0.2191
12.5000 0.0381 -0.0032 0.2880 -0.1575 -0.0899 -0.2474
12.4000 0.0312 -0.0047 0.3062 -0.1720 -0.0981 -0.2700
12.3000 0.0258 -0.0069 0.3405 -0.1874 -0.1202 -0.3076
12.2000 0.0332 -0.0091 0.3750 -0.2017 -0.1309 -0.3326
12.1000 0.0247 -0.0116 0.3979 -0.2170 -0.1444 -0.3614
12.0000 0.0253 -0.0144 0.4411 -0.2313 -0.1699 -0.4012
11.9000 0.0243 -0.0198 0.4786 -0.2462 -0.1881 -0.4343
11.8000 0.0287 -0.0225 0.5174 -0.2606 -0.2055 -0.4661
11.7000 0.0324 -0.0270 0.5460 -0.2741 -0.2124 -0.4865
11.6000 0.0261 -0.0323 0.5790 -0.2886 -0.2319 -0.5205
11.5000 0.0364 -0.0371 0.6107 -0.3029 -0.2342 -0.5371
11.4000 0.0348 -0.0425 0.6588 -0.3182 -0.2633 -0.5814
11.3000 0.0427 -0.0477 0.6946 -0.3327 -0.2714 -0.6041
11.2000 0.0406 -0.0509 0.7360 -0.3457 -0.2987 -0.6444
11.1000 0.0435 -0.0533 0.7811 -0.3600 -0.3243 -0.6842
11.0000 0.0422 -0.0555 0.8264 -0.3734 -0.3555 -0.7289
10.9000 0.0532 -0.0540 0.8666 -0.3870 -0.3726 -0.7596
10.8000 0.0543 -0.0531 0.9085 -0.4018 -0.3995 -0.8013
10.7000 0.0501 -0.0517 0.9498 -0.4175 -0.4308 -0.8483
10.6000 0.0431 -0.0496 0.9967 -0.4329 -0.4714 -0.9043
10.5000 0.0353 -0.0478 1.0447 -0.4481 -0.5137 -0.9617
10.4000 0.0307 -0.0451 1.0988 -0.4653 -0.5579 -1.0232
10.3000 0.0173 -0.0434 1.1433 -0.4796 -0.6039 -1.0835
10.2000 0.0073 -0.0421 1.1737 -0.4964 -0.6287 -1.1251
10.1000 -0.0011 -0.0413 1.2203 -0.5140 -0.6668 -1.1808
10.0000 -0.0075 -0.0404 1.2576 -0.5307 -0.6948 -1.2255
9.9000 -0.0077 -0.0393 1.2940 -0.5471 -0.7152 -1.2622
9.8000 -0.0214 -0.0397 1.3292 -0.5646 -0.7462 -1.3108
9.7000 -0.0189 -0.0389 1.3631 -0.5813 -0.7617 -1.3430
9.6000 -0.0091 -0.0370 1.3931 -0.5969 -0.7683 -1.3652
9.5000 0.0005 -0.0360 1.4223 -0.6126 -0.7731 -1.3857
9.4000 0.0266 -0.0360 1.4479 -0.6276 -0.7577 -1.3853
9.3000 0.0590 -0.0366 1.4784 -0.6408 -0.7421 -1.3829
9.2000 0.0892 -0.0396 1.5034 -0.6549 -0.7197 -1.3746
9.1000 0.1136 -0.0415 1.5245 -0.6667 -0.7028 -1.3695
9.0000 0.1546 -0.0444 1.5328 -0.6780 -0.6558 -1.3338
8.9000 0.1884 -0.0472 1.5567 -0.6887 -0.6323 -1.3210
8.8000 0.2089 -0.0506 1.5861 -0.6968 -0.6298 -1.3266
8.7000 0.2224 -0.0542 1.5965 -0.7022 -0.6176 -1.3198
8.6000 0.2349 -0.0575 1.6108 -0.7068 -0.6115 -1.3183
8.5000 0.2346 -0.0605 1.6294 -0.7117 -0.6228 -1.3345
8.4000 0.2405 -0.0629 1.6584 -0.7154 -0.6397 -1.3551
8.3000 0.2400 -0.0642 1.6870 -0.7185 -0.6644 -1.3829
8.2000 0.2331 -0.0638 1.7243 -0.7216 -0.7061 -1.4277
8.1000 0.2215 -0.0628 1.7644 -0.7241 -0.7559 -1.4800
8.0000 0.1913 -0.0622 1.8045 -0.7263 -0.8245 -1.5508
7.9000 0.1600 -0.0637 1.8629 -0.7311 -0.9080 -1.6390
7.8000 0.1215 -0.0665 1.9269 -0.7380 -1.0013 -1.7393
7.7000 0.0704 -0.0706 1.9907 -0.7460 -1.1041 -1.8500
7.6000 0.0056 -0.0767 2.0603 -0.7549 -1.2235 -1.9784
7.5000 -0.0756 -0.0851 2.1308 -0.7640 -1.3577 -2.1217
7.4000 -0.1661 -0.0960 2.1876 -0.7753 -1.4829 -2.2582
7.3000 -0.2749 -0.1089 2.2453 -0.7866 -1.6251 -2.4117
7.2000 -0.3754 -0.1236 2.3002 -0.7979 -1.7545 -2.5524
7.1000 -0.4669 -0.1398 2.3621 -0.8109 -1.8787 -2.6897
7.0000 -0.5513 -0.1578 2.4125 -0.8237 -1.9828 -2.8064
6.9000 -0.6228 -0.1779 2.4547 -0.8355 -2.0645 -2.9001
6.8000 -0.6650 -0.2002 2.4922 -0.8480 -2.1089 -2.9569
6.7000 -0.6754 -0.2250 2.5144 -0.8585 -2.1063 -2.9647
6.6000 -0.6283 -0.2524 2.5300 -0.8680 -2.0377 -2.9057
6.5000 -0.5270 -0.2828 2.5277 -0.8774 -1.8942 -2.7716
6.4000 -0.3677 -0.3166 2.5037 -0.8835 -1.6711 -2.5547
6.3000 -0.1499 -0.3540 2.4893 -0.8869 -1.3981 -2.2851
6.2000 0.0732 -0.3955 2.4471 -0.8840 -1.0944 -1.9784
6.1000 0.2910 -0.4416 2.4026 -0.8753 -0.7947 -1.6700
6.0000 0.4623 -0.4927 2.3429 -0.8584 -0.5295 -1.3879
5.9000 0.6160 -0.5496 2.2826 -0.8323 -0.2850 -1.1174
5.8000 0.7597 -0.6128 2.2340 -0.8001 -0.0618 -0.8619
5.7000 0.8921 -0.6830 2.1905 -0.7596 0.1438 -0.6159
5.6000 1.0182 -0.7611 2.1552 -0.7115 0.3356 -0.3759
5.5000 1.1134 -0.8480 2.1470 -0.6511 0.4657 -0.1855
5.4000 1.1991 -0.9446 2.1369 -0.5843 0.5911 0.0068
5.3000 1.2659 -1.0522 2.1494 -0.5101 0.6787 0.1686
5.2000 1.2927 -1.1718 2.1870 -0.4243 0.7016 0.2773
5.1000 1.2897 -1.3048 2.2446 -0.3311 0.6810 0.3499
5.0000 1.2632 -1.4525 2.3178 -0.2302 0.6282 0.3980
4.9000 1.1779 -1.6165 2.4081 -0.1191 0.5056 0.3865
4.8000 1.0525 -1.7982 2.5167 -0.0003 0.3346 0.3343
4.7000 0.8731 -1.9989 2.6439 0.1283 0.1001 0.2284
4.6000 0.6516 -2.2199 2.7924 0.2628 -0.1836 0.0792
4.5000 0.3907 -2.4618 2.9548 0.4017 -0.5040 -0.1022
4.4000 0.0861 -2.7245 3.1342 0.5489 -0.8725 -0.3236
4.3000 -0.2409 -3.0066 3.3283 0.7007 -1.2626 -0.5619
4.2000 -0.6010 -3.3044 3.5448 0.8581 -1.6989 -0.8408
4.1000 -0.9775 -3.6106 3.7879 1.0217 -2.1759 -1.1543
4.0000 -1.3600 -3.9123 4.0437 1.1888 -2.6796 -1.4908
3.9000 -1.7222 -4.1876 4.3306 1.3609 -3.2257 -1.8647
3.8000 -2.0329 -4.4002 4.6314 1.5380 -3.8016 -2.2636
3.7000 -2.2332 -4.4916 4.9555 1.7197 -4.4162 -2.6965
3.6000 -2.2200 -4.3679 5.2976 1.9051 -5.0541 -3.1490
3.5000 -1.8424 -3.8790 5.6680 2.0939 -5.7246 -3.6307
3.4000 -0.8644 -2.7852 6.0626 2.2854 -6.4267 -4.1414
3.3000 1.0897 -0.7030 6.4805 2.4817 -7.1690 -4.6873
3.2000 4.6545 2.9836 6.9266 2.6812 -7.9364 -5.2552
3.1000 10.8096 9.2685 7.3987 2.8836 -8.7403 -5.8567
3.0000 21.1704 19.7647 7.8815 3.0880 -9.5628 -6.4748
2.9000 38.3711 37.1051 8.3958 3.2948 -10.4237 -7.1288
2.8000 66.7331 65.6132 8.9406 3.5057 -11.3255 -7.8198
2.7000 113.3964 112.4264 9.4982 3.7173 -12.2446 -8.5273
2.6000 190.1822 189.3759 10.0752 3.9318 -13.1998 -9.2680
2.5000 316.7565 316.1114 10.6740 4.1468 -14.1748 -10.0280
2.4000 525.7208 525.2535 11.2803 4.3623 -15.1744 -10.8121
2.3000 870.9623 870.6835 11.9133 4.5789 -16.2125 -11.6336
2.2000 1440.5239 1440.4407 12.5507 4.7956 -17.2621 -12.4665
2.1000 2375.5373 2375.6576 13.1886 5.0123 -18.3205 -13.3081
2.0000 3895.3596 3895.6881 13.8417 5.2285 -19.3980 -14.1695
1.9000 6325.0438 6325.5974 14.4881 5.4428 -20.4837 -15.0409
1.8000 10112.4735 10113.2496 15.1425 5.6531 -21.5706 -15.9175
1.7000 15808.7917 15809.8038 15.8063 5.8619 -22.6796 -16.8177
1.6000 23976.9347 23978.1921 16.4529 6.0665 -23.7738 -17.7073
1.5000 35017.6646 35019.1738 17.1009 6.2674 -24.8750 -18.6076
1.4000 49016.0449 49017.8200 17.7432 6.4607 -25.9797 -19.5190
1.3000 65975.1198 65977.1789 18.3720 6.6488 -27.0831 -20.4343
