# 0-dist(Ang),1-dGtot,2-dGvac,3-dGele,4-dGdis,5-dGcav,6-dGvdw(kT)
13.5000 0.0000 0.0000 0.0000 0.0000 0.0000 0.0000
13.4000 0.0046 0.0000 -0.0061 0.0007 0.0100 0.0107
13.3000 0.0162 0.0000 0.0056 -0.0029 0.0134 0.0105
13.2000 0.0413 0.0000 0.0258 -0.0006 0.0160 0.0155
13.1000 0.0544 0.0000 -0.0011 0.0011 0.0544 0.0555
13.0000 0.0886 -0.0000 0.0053 0.0021 0.0812 0.0833
12.9000 0.1238 0.0000 -0.0078 0.0060 0.1255 0.1315
12.8000 0.1562 0.0001 0.0149 0.0064 0.1349 0.1413
12.7000 0.1919 0.0002 0.0158 0.0060 0.1699 0.1759
12.6000 0.2468 0.0003 0.0781 0.0100 0.1583 0.1683
12.5000 0.3023 0.0006 0.0751 0.0109 0.2157 0.2266
12.4000 0.3402 0.0007 0.0756 0.0162 0.2476 0.2639
12.3000 0.3630 0.0007 0.0902 0.0235 0.2485 0.2720
12.2000 0.3884 0.0008 0.1050 0.0243 0.2582 0.2826
12.1000 0.3936 0.0007 0.0929 0.0304 0.2695 0.2999
12.0000 0.4090 0.0003 0.1083 0.0325 0.2678 0.3003
11.9000 0.3997 -0.0086 0.1094 0.0374 0.2613 0.2987
11.8000 0.3882 -0.0085 0.1282 0.0425 0.2260 0.2685
11.7000 0.3402 -0.0127 0.1444 0.0507 0.1578 0.2085
11.6000 0.3187 -0.0150 0.1901 0.0582 0.0852 0.1435
11.5000 0.2906 -0.0153 0.2311 0.0625 0.0122 0.0747
11.4000 0.2363 -0.0196 0.2391 0.0694 -0.0526 0.0168
11.3000 0.2042 -0.0178 0.2387 0.0764 -0.0932 -0.0168
11.2000 0.1750 -0.0141 0.2329 0.0840 -0.1279 -0.0439
11.1000 0.1263 -0.0075 0.2481 0.0878 -0.2022 -0.1144
11.0000 0.0768 -0.0031 0.2096 0.0921 -0.2218 -0.1296
10.9000 0.0226 0.0015 0.2008 0.0972 -0.2770 -0.1798
10.8000 -0.0357 0.0051 0.2173 0.1010 -0.3591 -0.2581
10.7000 -0.0775 0.0076 0.2286 0.1033 -0.4171 -0.3138
10.6000 -0.1401 0.0093 0.2221 0.1072 -0.4787 -0.3715
10.5000 -0.1807 0.0096 0.2099 0.1069 -0.5071 -0.4002
10.4000 -0.2331 0.0105 0.1957 0.1072 -0.5465 -0.4393
10.3000 -0.2660 0.0119 0.1830 0.1044 -0.5652 -0.4609
10.2000 -0.3070 0.0135 0.2014 0.1001 -0.6220 -0.5219
10.1000 -0.3265 0.0157 0.2136 0.0951 -0.6508 -0.5558
10.0000 -0.3330 0.0182 0.2149 0.0885 -0.6546 -0.5661
9.9000 -0.3170 0.0210 0.2425 0.0834 -0.6638 -0.5804
9.8000 -0.2990 0.0233 0.2749 0.0760 -0.6731 -0.5971
9.7000 -0.2650 0.0258 0.3344 0.0659 -0.6909 -0.6251
9.6000 -0.2251 0.0280 0.3492 0.0577 -0.6600 -0.6022
9.5000 -0.1565 0.0302 0.4218 0.0491 -0.6575 -0.6084
9.4000 -0.0892 0.0321 0.4862 0.0432 -0.6506 -0.6073
9.3000 0.0058 0.0336 0.5620 0.0417 -0.6314 -0.5897
9.2000 0.1357 0.0348 0.6629 0.0393 -0.6011 -0.5618
9.1000 0.2893 0.0359 0.7465 0.0401 -0.5330 -0.4930
9.0000 0.4621 0.0368 0.8251 0.0476 -0.4473 -0.3998
8.9000 0.6792 0.0374 0.9037 0.0617 -0.3235 -0.2617
8.8000 0.8777 0.0378 0.9437 0.0788 -0.1825 -0.1037
8.7000 1.0211 0.0379 0.9937 0.1044 -0.1147 -0.0103
8.6000 1.1592 0.0377 0.9959 0.1327 -0.0068 0.1259
8.5000 1.2549 0.0372 1.0166 0.1656 0.0357 0.2013
8.4000 1.2907 0.0364 0.9871 0.2014 0.0662 0.2675
8.3000 1.3073 0.0352 0.9508 0.2372 0.0844 0.3216
8.2000 1.2698 0.0336 0.8941 0.2777 0.0647 0.3424
8.1000 1.1969 0.0316 0.8442 0.3167 0.0048 0.3215
8.0000 1.1068 0.0290 0.7751 0.3535 -0.0504 0.3031
7.9000 0.9748 0.0258 0.6931 0.3886 -0.1323 0.2563
7.8000 0.8329 0.0221 0.6585 0.4189 -0.2663 0.1526
7.7000 0.6671 0.0177 0.5980 0.4473 -0.3955 0.0518
7.6000 0.5027 0.0125 0.5242 0.4722 -0.5059 -0.0337
7.5000 0.3313 0.0065 0.4350 0.4923 -0.6023 -0.1100
7.4000 0.1420 -0.0004 0.3927 0.5050 -0.7550 -0.2500
7.3000 -0.0516 -0.0084 0.3396 0.5208 -0.9033 -0.3825
7.2000 -0.2417 -0.0176 0.3216 0.5253 -1.0708 -0.5455
7.1000 -0.4330 -0.0282 0.2985 0.5241 -1.2273 -0.7032
7.0000 -0.6114 -0.0402 0.2576 0.5222 -1.3507 -0.8286
6.9000 -0.7828 -0.0539 0.2313 0.5220 -1.4819 -0.9599
6.8000 -0.9194 -0.0695 0.2050 0.5220 -1.5766 -1.0546
6.7000 -1.0306 -0.0872 0.1858 0.5273 -1.6562 -1.1289
6.6000 -1.0787 -0.1073 0.1879 0.5354 -1.6943 -1.1589
6.5000 -1.0692 -0.1302 0.1170 0.5508 -1.6066 -1.0558
6.4000 -0.9841 -0.1560 0.0378 0.5756 -1.4412 -0.8656
6.3000 -0.7794 -0.1853 -0.0197 0.6085 -1.1828 -0.5742
6.2000 -0.4335 -0.2184 -0.0942 0.6488 -0.7695 -0.1207
6.1000 0.0622 -0.2559 -0.2148 0.7007 -0.1677 0.5330
6.0000 0.7620 -0.2982 -0.3204 0.7665 0.6143 1.3808
5.9000 1.6624 -0.3461 -0.4519 0.8457 1.6149 2.4606
5.8000 2.6757 -0.4001 -0.5970 0.9469 2.7261 3.6730
5.7000 3.6052 -0.4611 -0.6984 1.0749 3.6898 4.7648
5.6000 4.1695 -0.5299 -0.6648 1.2303 4.1341 5.3644
5.5000 4.4576 -0.6075 -0.5521 1.4104 4.2070 5.6174
5.4000 4.5894 -0.6951 -0.4212 1.6140 4.0918 5.7058
5.3000 4.6446 -0.7937 -0.2719 1.8310 3.8795 5.7105
5.2000 4.6741 -0.9049 -0.0998 2.0579 3.6211 5.6790
5.1000 4.6254 -1.0300 0.0587 2.3017 3.2952 5.5969
5.0000 4.5479 -1.1708 0.2044 2.5549 2.9596 5.5145
4.9000 4.4165 -1.3289 0.3697 2.8166 2.5596 5.3762
4.8000 4.2508 -1.5064 0.5351 3.0885 2.1340 5.2226
4.7000 4.0278 -1.7050 0.7261 3.3695 1.6377 5.0072
4.6000 3.7644 -1.9270 0.9242 3.6614 1.1062 4.7676
4.5000 3.4502 -2.1740 1.1570 3.9567 0.5108 4.4675
4.4000 3.0735 -2.4478 1.4276 4.2580 -0.1640 4.0940
4.3000 2.6477 -2.7496 1.7104 4.5646 -0.8774 3.6872
4.2000 2.1598 -3.0795 2.0380 4.8740 -1.6723 3.2017
4.1000 1.6359 -3.4361 2.3772 5.1859 -2.4905 2.6954
4.0000 1.0427 -3.8158 2.8127 5.5019 -3.4555 2.0465
3.9000 0.4328 -4.2107 3.2560 5.8182 -4.4302 1.3881
3.8000 -0.2520 -4.6073 3.7367 6.1364 -5.5174 0.6190
3.7000 -0.9248 -4.9826 4.2384 6.4537 -6.6338 -0.1801
3.6000 -1.5899 -5.2997 4.7713 6.7706 -7.8318 -1.0611
3.5000 -2.1595 -5.5000 5.3268 7.0863 -9.0721 -1.9859
3.4000 -2.5547 -5.4922 5.8866 7.3986 -10.3474 -2.9488
3.3000 -2.6273 -5.1340 6.4965 7.7098 -11.6992 -3.9894
3.2000 -2.1592 -4.2053 7.1165 8.0191 -13.0891 -5.0700
3.1000 -0.7956 -2.3639 7.7603 8.3239 -14.5155 -6.1916
3.0000 1.9813 0.9233 8.4164 8.6227 -15.9806 -7.3579
2.9000 7.0234 6.4922 9.1055 8.9151 -17.4889 -8.5737
2.8000 15.6438 15.6655 9.7923 9.2033 -19.0167 -9.8134
2.7000 29.9528 30.5578 10.5073 9.4846 -20.5964 -11.1117
2.6000 53.3792 54.5941 11.2666 9.7601 -22.2409 -12.4809
2.5000 91.5528 93.4074 12.0528 10.0269 -23.9335 -13.9066
2.4000 153.9039 156.4295 12.8444 10.2853 -25.6544 -15.3691
2.3000 256.5762 259.7873 13.6620 10.5340 -27.4063 -16.8723
2.2000 427.7984 431.7232 14.5186 10.7716 -29.2141 -18.4425
2.1000 718.4459 723.1062 15.3815 10.9965 -31.0373 -20.0408
2.0000 1223.1214 1228.5437 16.2770 11.2103 -32.9085 -21.6982
1.9000 2124.3628 2130.5720 17.1890 11.4103 -34.8075 -23.3971
1.8000 3789.4092 3796.4321 18.1126 11.5970 -36.7314 -25.1343
1.7000 6992.7847 7000.6386 19.0791 11.7658 -38.6967 -26.9309
1.6000 13456.5680 13465.3062 20.0446 11.9194 -40.7007 -28.7813
1.5000 27241.3572 27251.0150 20.9931 12.0549 -42.6998 -30.6449
1.4000 58564.2892 58574.9006 21.9910 12.1684 -44.7626 -32.5942
1.3000 135053.0220 135064.6157 22.9680 12.2654 -46.7993 -34.5339
