# 0-dist(Ang),1-dGtot,2-dGvac,3-dGele,4-dGdis,5-dGcav,6-dGvdw(kT)
13.5000 0.0000 0.0000 0.0000 0.0000 0.0000 0.0000
13.4000 0.0188 0.0000 0.5143 -0.0251 -0.4703 -0.4955
13.3000 0.0083 0.0000 0.7761 -0.0438 -0.7239 -0.7676
13.2000 0.0201 0.0000 1.1153 -0.0681 -1.0270 -1.0951
13.1000 0.0406 0.0000 1.5589 -0.0955 -1.4226 -1.5181
13.0000 0.0597 0.0000 1.9093 -0.1102 -1.7393 -1.8495
12.9000 0.0898 0.0000 2.2950 -0.1337 -2.0712 -2.2049
12.8000 0.0555 0.0000 2.6809 -0.1523 -2.4729 -2.6252
12.7000 0.0763 0.0000 3.0520 -0.1705 -2.8050 -2.9755
12.6000 0.1498 0.0000 3.3999 -0.1970 -3.0528 -3.2498
12.5000 0.1347 0.0000 3.8739 -0.2154 -3.5234 -3.7388
12.4000 0.1000 0.0000 4.0589 -0.2308 -3.7279 -3.9587
12.3000 0.0962 0.0000 4.4439 -0.2482 -4.0993 -4.3476
12.2000 0.1207 0.0000 4.8744 -0.2735 -4.4801 -4.7536
12.1000 0.1525 0.0000 5.3160 -0.2917 -4.8717 -5.1633
12.0000 0.1732 0.0000 5.6126 -0.3051 -5.1342 -5.4393
11.9000 0.1112 -0.0020 5.9358 -0.3288 -5.4938 -5.8226
11.8000 0.1172 -0.0058 6.3863 -0.3482 -5.9151 -6.2632
11.7000 0.0725 -0.0110 6.7287 -0.3582 -6.2869 -6.6451
11.6000 0.0571 -0.0169 7.0859 -0.3689 -6.6429 -7.0118
11.5000 0.0342 -0.0237 7.4529 -0.3830 -7.0119 -7.3949
11.4000 -0.0040 -0.0314 7.7969 -0.4021 -7.3673 -7.7694
11.3000 -0.0091 -0.0400 8.1619 -0.4162 -7.7149 -8.1310
11.2000 -0.0267 -0.0496 8.5251 -0.4283 -8.0739 -8.5022
11.1000 -0.0756 -0.0602 8.9377 -0.4409 -8.5123 -8.9532
11.0000 -0.0345 -0.0719 9.3191 -0.4554 -8.8263 -9.2817
10.9000 -0.0345 -0.0811 9.6888 -0.4765 -9.1657 -9.6422
10.8000 -0.0417 -0.0888 10.0856 -0.4970 -9.5414 -10.0384
10.7000 -0.0351 -0.0938 10.4862 -0.5157 -9.9117 -10.4273
10.6000 -0.0500 -0.0970 10.7882 -0.5350 -10.2062 -10.7411
10.5000 -0.0270 -0.0988 11.1518 -0.5461 -10.5339 -11.0799
10.4000 0.0079 -0.0997 11.5585 -0.5597 -10.8911 -11.4508
10.3000 0.0592 -0.1001 12.0119 -0.5651 -11.2873 -11.8524
10.2000 0.0289 -0.1014 12.3500 -0.5830 -11.6366 -12.2196
10.1000 0.0527 -0.1054 12.7567 -0.5996 -11.9988 -12.5984
10.0000 0.0703 -0.1124 13.2544 -0.6167 -12.4548 -13.0715
9.9000 0.0941 -0.1211 13.5654 -0.6376 -12.7126 -13.3502
9.8000 0.0343 -0.1301 13.9174 -0.6546 -13.0984 -13.7530
9.7000 0.0373 -0.1420 14.2900 -0.6796 -13.4310 -14.1106
9.6000 0.0579 -0.1550 14.6385 -0.6966 -13.7289 -14.4255
9.5000 0.0645 -0.1704 14.9842 -0.7158 -14.0334 -14.7492
9.4000 0.0097 -0.1876 15.3639 -0.7340 -14.4326 -15.1666
9.3000 -0.0288 -0.2051 15.6688 -0.7420 -14.7508 -15.4927
9.2000 -0.0196 -0.2225 16.0468 -0.7574 -15.0866 -15.8441
9.1000 -0.0370 -0.2397 16.4489 -0.7772 -15.4692 -16.2464
9.0000 -0.0727 -0.2563 16.7879 -0.7879 -15.8167 -16.6046
8.9000 -0.0917 -0.2676 17.1129 -0.7985 -16.1383 -16.9368
8.8000 -0.1206 -0.2742 17.4647 -0.8084 -16.5028 -17.3111
8.7000 -0.1607 -0.2797 17.8892 -0.8226 -16.9474 -17.7700
8.6000 -0.1814 -0.2863 18.2337 -0.8397 -17.2889 -18.1286
8.5000 -0.2093 -0.2940 18.6039 -0.8438 -17.6751 -18.5189
8.4000 -0.2495 -0.3031 18.9428 -0.8611 -18.0278 -18.8889
8.3000 -0.2964 -0.3134 19.3098 -0.8788 -18.4136 -19.2924
8.2000 -0.3035 -0.3268 19.6171 -0.8954 -18.6980 -19.5934
8.1000 -0.3271 -0.3402 20.0273 -0.9165 -19.0973 -20.0138
8.0000 -0.3408 -0.3551 20.4925 -0.9309 -19.5470 -20.4779
7.9000 -0.3628 -0.3724 20.8353 -0.9437 -19.8815 -20.8252
7.8000 -0.4080 -0.3910 21.1627 -0.9627 -20.2165 -21.1792
7.7000 -0.4210 -0.4139 21.4874 -0.9811 -20.5128 -21.4939
7.6000 -0.4602 -0.4359 21.9113 -0.9952 -20.9399 -21.9351
7.5000 -0.5208 -0.4562 22.2017 -1.0044 -21.2615 -22.2658
7.4000 -0.5517 -0.4766 22.7175 -1.0230 -21.7690 -22.7920
7.3000 -0.5858 -0.4912 22.9982 -1.0355 -22.0565 -23.0920
7.2000 -0.6025 -0.5021 23.3828 -1.0519 -22.4305 -23.4824
7.1000 -0.5519 -0.5083 23.7881 -1.0636 -22.7671 -23.8307
7.0000 -0.5369 -0.5117 24.0708 -1.0779 -23.0172 -24.0951
6.9000 -0.4807 -0.5135 24.4326 -1.0968 -23.3020 -24.3988
6.8000 -0.4797 -0.5172 24.7869 -1.1038 -23.6447 -24.7485
6.7000 -0.4550 -0.5228 25.0672 -1.1088 -23.8895 -24.9983
6.6000 -0.3649 -0.5318 25.3562 -1.1184 -24.0698 -25.1882
6.5000 -0.2777 -0.5441 25.7859 -1.1135 -24.4047 -25.5183
6.4000 -0.1723 -0.5601 26.2814 -1.1307 -24.7616 -25.8923
6.3000 -0.1256 -0.5803 26.6345 -1.1304 -25.0482 -26.1786
6.2000 -0.0779 -0.6046 26.9773 -1.1288 -25.3203 -26.4491
6.1000 0.0193 -0.6324 27.3483 -1.1322 -25.5627 -26.6950
6.0000 0.0853 -0.6640 27.7579 -1.1368 -25.8701 -27.0069
5.9000 0.1254 -0.7008 28.1136 -1.1317 -26.1539 -27.2856
5.8000 0.1320 -0.7436 28.6353 -1.1311 -26.6267 -27.7578
5.7000 0.1690 -0.7908 29.2959 -1.1435 -27.1905 -28.3340
5.6000 0.1870 -0.8406 29.8162 -1.1433 -27.6430 -28.7863
5.5000 0.1842 -0.8926 30.4451 -1.1490 -28.2168 -29.3659
5.4000 0.1297 -0.9465 31.0099 -1.1509 -28.7802 -29.9311
5.3000 0.0089 -1.0030 31.5452 -1.1510 -29.3794 -30.5304
5.2000 -0.0938 -1.0627 32.0670 -1.1392 -29.9560 -31.0951
5.1000 -0.1971 -1.1261 32.5074 -1.1357 -30.4396 -31.5753
5.0000 -0.3732 -1.1937 32.9677 -1.1323 -31.0115 -32.1438
4.9000 -0.5232 -1.2665 33.2993 -1.1362 -31.4163 -32.5525
4.8000 -0.6568 -1.3447 33.5658 -1.1409 -31.7333 -32.8742
4.7000 -0.8201 -1.4293 33.8444 -1.1326 -32.0986 -33.2312
4.6000 -0.8815 -1.5209 34.0504 -1.1354 -32.2713 -33.4067
4.5000 -0.9903 -1.6201 34.1839 -1.1296 -32.4199 -33.5495
4.4000 -1.0205 -1.7277 34.3781 -1.1276 -32.5385 -33.6661
4.3000 -1.0017 -1.8446 34.6457 -1.1280 -32.6699 -33.7979
4.2000 -1.0228 -1.9717 34.7785 -1.1174 -32.7070 -33.8243
4.1000 -1.0456 -2.1101 34.9510 -1.1041 -32.7767 -33.8808
4.0000 -1.0013 -2.2611 35.1067 -1.0857 -32.7552 -33.8409
3.9000 -0.8832 -2.4260 35.3447 -1.0655 -32.7302 -33.7957
3.8000 -0.7451 -2.6063 35.6123 -1.0371 -32.7073 -33.7444
3.7000 -0.5324 -2.8039 35.9018 -1.0072 -32.6160 -33.6232
3.6000 -0.2463 -3.0206 36.2063 -0.9600 -32.4644 -33.4245
3.5000 0.0554 -3.2587 36.5945 -0.9206 -32.3517 -33.2723
3.4000 0.3890 -3.5206 37.0763 -0.8698 -32.2882 -33.1580
3.3000 0.7926 -3.8091 37.7033 -0.8032 -32.2891 -33.0923
3.2000 1.1778 -4.1273 38.5215 -0.7534 -32.4531 -33.2065
3.1000 1.4371 -4.4787 39.4738 -0.6710 -32.8766 -33.5476
3.0000 1.7160 -4.8669 40.5694 -0.5914 -33.3842 -33.9756
2.9000 1.8367 -5.2960 41.7425 -0.4965 -34.1017 -34.5982
2.8000 1.8167 -5.7702 43.1066 -0.4075 -35.0999 -35.5074
2.7000 1.7189 -6.2938 44.5212 -0.2981 -36.1974 -36.4955
2.6000 1.4327 -6.8706 46.1719 -0.1714 -37.6834 -37.8548
2.5000 1.1043 -7.5036 47.8372 -0.0466 -39.1683 -39.2149
2.4000 0.7060 -8.1933 49.5346 0.0972 -40.7174 -40.6202
2.3000 0.1664 -8.9364 51.2429 0.2480 -42.3722 -42.1241
2.2000 -0.4934 -9.7218 53.0552 0.4252 -44.2354 -43.8101
2.1000 -1.1842 -10.5249 54.8417 0.5896 -46.0734 -45.4837
2.0000 -1.9070 -11.2962 56.6420 0.7757 -48.0104 -47.2347
1.9000 -2.4468 -11.9423 58.5002 0.9771 -49.9630 -48.9859
1.8000 -2.7357 -12.2888 60.3314 1.1823 -51.9411 -50.7588
1.7000 -2.5030 -12.0100 62.1106 1.4082 -53.9914 -52.5832
1.6000 -1.0235 -10.4871 64.0376 1.6357 -56.1884 -54.5527
