# 0-dist(Ang),1-dGtot,2-dGvac,3-dGele,4-dGdis,5-dGcav,6-dGvdw(kT)
13.5000 0.0000 0.0000 0.0000 0.0000 0.0000 0.0000
13.4000 -0.0074 0.0000 0.5825 0.0325 -0.6224 -0.5899
13.3000 -0.0064 0.0000 1.1682 0.0657 -1.2402 -1.1745
13.2000 0.0022 0.0000 1.7502 0.0994 -1.8474 -1.7479
13.1000 0.0186 0.0000 2.3295 0.1322 -2.4430 -2.3108
13.0000 0.0341 0.0000 2.9218 0.1640 -3.0516 -2.8876
12.9000 0.0588 0.0000 3.5025 0.1957 -3.6393 -3.4437
12.8000 0.0721 -0.0004 4.0926 0.2309 -4.2507 -4.0199
12.7000 0.0763 -0.0015 4.6730 0.2642 -4.8593 -4.5951
12.6000 0.1054 -0.0038 5.2483 0.2988 -5.4377 -5.1390
12.5000 0.1170 -0.0073 5.8188 0.3321 -6.0265 -5.6944
12.4000 0.1415 -0.0112 6.4101 0.3655 -6.6227 -6.2572
12.3000 0.1544 -0.0155 6.9767 0.3997 -7.2064 -6.8067
12.2000 0.1611 -0.0198 7.5564 0.4355 -7.8105 -7.3750
12.1000 0.1580 -0.0247 8.1336 0.4717 -8.4221 -7.9504
12.0000 0.1352 -0.0301 8.7031 0.5085 -9.0459 -8.5374
11.9000 0.1066 -0.0376 9.2637 0.5463 -9.6654 -9.1191
11.8000 0.0764 -0.0440 9.8303 0.5851 -10.2945 -9.7094
11.7000 0.0555 -0.0497 10.4106 0.6226 -10.9276 -10.3050
11.6000 0.0159 -0.0554 10.9829 0.6592 -11.5704 -10.9113
11.5000 -0.0056 -0.0617 11.5545 0.6956 -12.1937 -11.4981
11.4000 -0.0583 -0.0681 12.1340 0.7322 -12.8562 -12.1239
11.3000 -0.1127 -0.0724 12.7137 0.7689 -13.5227 -12.7538
11.2000 -0.1686 -0.0769 13.2927 0.8070 -14.1913 -13.3843
11.1000 -0.1926 -0.0813 13.8853 0.8442 -14.8408 -13.9966
11.0000 -0.2257 -0.0852 14.4532 0.8808 -15.4744 -14.5937
10.9000 -0.2601 -0.0882 15.0498 0.9177 -16.1393 -15.2217
10.8000 -0.3014 -0.0910 15.6277 0.9525 -16.7905 -15.8381
10.7000 -0.3326 -0.0945 16.2148 0.9863 -17.4391 -16.4528
10.6000 -0.3799 -0.0974 16.8005 1.0199 -18.1029 -17.0830
10.5000 -0.4172 -0.1017 17.3995 1.0529 -18.7679 -17.7150
10.4000 -0.4401 -0.1065 17.9813 1.0868 -19.4016 -18.3148
10.3000 -0.4804 -0.1120 18.5682 1.1197 -20.0562 -18.9364
10.2000 -0.5216 -0.1182 19.1508 1.1512 -20.7053 -19.5541
10.1000 -0.5442 -0.1239 19.7311 1.1788 -21.3302 -20.1513
10.0000 -0.5572 -0.1286 20.3194 1.2106 -21.9584 -20.7478
9.9000 -0.5458 -0.1334 20.9059 1.2426 -22.5607 -21.3181
9.8000 -0.5412 -0.1369 21.4655 1.2732 -23.1429 -21.8697
9.7000 -0.5084 -0.1394 22.0487 1.3055 -23.7228 -22.4174
9.6000 -0.4653 -0.1416 22.6260 1.3351 -24.2844 -22.9493
9.5000 -0.3961 -0.1447 23.2069 1.3675 -24.8256 -23.4580
9.4000 -0.3232 -0.1475 23.7944 1.3991 -25.3690 -23.9699
9.3000 -0.2214 -0.1515 24.3788 1.4322 -25.8806 -24.4484
9.2000 -0.1222 -0.1571 24.9590 1.4642 -26.3881 -24.9239
9.1000 -0.0054 -0.1640 25.5406 1.5006 -26.8824 -25.3819
9.0000 0.1063 -0.1715 26.1158 1.5379 -27.3759 -25.8379
8.9000 0.2248 -0.1783 26.6879 1.5797 -27.8644 -26.2847
8.8000 0.3276 -0.1872 27.2691 1.6229 -28.3770 -26.7541
8.7000 0.3909 -0.1949 27.8531 1.6703 -28.9376 -27.2673
8.6000 0.4476 -0.2019 28.4323 1.7190 -29.5018 -27.7828
8.5000 0.4695 -0.2099 29.0140 1.7721 -30.1066 -28.3345
8.4000 0.4764 -0.2173 29.5852 1.8277 -30.7191 -28.8914
8.3000 0.4341 -0.2241 30.1502 1.8857 -31.3776 -29.4918
8.2000 0.3912 -0.2257 30.7102 1.9460 -32.0392 -30.0932
8.1000 0.3303 -0.2249 31.2771 2.0054 -32.7271 -30.7217
8.0000 0.2683 -0.2236 31.8505 2.0605 -33.4189 -31.3584
7.9000 0.1716 -0.2230 32.4180 2.1185 -34.1416 -32.0231
7.8000 0.0666 -0.2238 32.9877 2.1746 -34.8718 -32.6972
7.7000 -0.0577 -0.2259 33.5687 2.2279 -35.6281 -33.4002
7.6000 -0.2064 -0.2303 34.1255 2.2799 -36.3812 -34.1013
7.5000 -0.3393 -0.2363 34.6987 2.3290 -37.1304 -34.8013
7.4000 -0.4948 -0.2451 35.2574 2.3748 -37.8815 -35.5067
7.3000 -0.6575 -0.2585 35.8195 2.4205 -38.6387 -36.2182
7.2000 -0.8301 -0.2775 36.3912 2.4625 -39.4058 -36.9433
7.1000 -1.0054 -0.3009 36.9676 2.5052 -40.1766 -37.6714
7.0000 -1.1618 -0.3264 37.5553 2.5470 -40.9371 -38.3901
6.9000 -1.2896 -0.3547 38.1289 2.5896 -41.6530 -39.0634
6.8000 -1.3751 -0.3857 38.6951 2.6325 -42.3165 -39.6840
6.7000 -1.4296 -0.4197 39.2718 2.6773 -42.9588 -40.2815
6.6000 -1.4232 -0.4570 39.8457 2.7262 -43.5378 -40.8116
6.5000 -1.3430 -0.4980 40.4113 2.7764 -44.0324 -41.2560
6.4000 -1.1872 -0.5431 40.9800 2.8281 -44.4520 -41.6239
6.3000 -0.9612 -0.5926 41.5370 2.8822 -44.7875 -41.9053
6.2000 -0.6527 -0.6470 42.0997 2.9418 -45.0471 -42.1053
6.1000 -0.3061 -0.7069 42.6533 3.0089 -45.2614 -42.2525
6.0000 0.0789 -0.7726 43.2266 3.0815 -45.4565 -42.3751
5.9000 0.4694 -0.8450 43.7863 3.1627 -45.6345 -42.4718
5.8000 0.8783 -0.9247 44.3496 3.2561 -45.8027 -42.5465
5.7000 1.2807 -1.0124 44.9077 3.3616 -45.9762 -42.6146
5.6000 1.6143 -1.1092 45.4790 3.4840 -46.2396 -42.7556
5.5000 1.8732 -1.2160 46.0628 3.6192 -46.5928 -42.9736
5.4000 1.9699 -1.3339 46.6487 3.7724 -47.1173 -43.3449
5.3000 1.9603 -1.4642 47.2309 3.9417 -47.7480 -43.8063
5.2000 1.8886 -1.6082 47.8259 4.1246 -48.4536 -44.3290
5.1000 1.7466 -1.7673 48.4082 4.3175 -49.2117 -44.8942
5.0000 1.5554 -1.9432 48.9908 4.5215 -50.0135 -45.4920
4.9000 1.3106 -2.1374 49.5762 4.7357 -50.8638 -46.1281
4.8000 1.0096 -2.3517 50.1343 4.9600 -51.7328 -46.7728
4.7000 0.6758 -2.5877 50.6930 5.1956 -52.6248 -47.4292
4.6000 0.2723 -2.8468 51.2400 5.4423 -53.5630 -48.1207
4.5000 -0.1847 -3.1299 51.7758 5.6979 -54.5283 -48.8303
4.4000 -0.6715 -3.4374 52.2961 5.9646 -55.4946 -49.5300
4.3000 -1.2249 -3.7679 52.8087 6.2371 -56.5025 -50.2654
4.2000 -1.8259 -4.1180 53.2945 6.5153 -57.5175 -51.0022
4.1000 -2.4638 -4.4799 53.7721 6.8004 -58.5560 -51.7556
4.0000 -3.1286 -4.8399 54.2338 7.0926 -59.6147 -52.5220
3.9000 -3.7832 -5.1735 54.6801 7.3896 -60.6790 -53.2894
3.8000 -4.3895 -5.4394 55.1219 7.6925 -61.7641 -54.0716
3.7000 -4.8871 -5.5684 55.5653 7.9981 -62.8817 -54.8836
3.6000 -5.1592 -5.4450 55.9862 8.3094 -64.0095 -55.7001
3.5000 -4.9873 -4.8760 56.4050 8.6231 -65.1389 -56.5158
3.4000 -4.0745 -3.5366 56.8083 8.9418 -66.2875 -57.3457
3.3000 -1.8592 -0.8729 57.2172 9.2596 -67.4626 -58.2030
3.2000 2.6374 4.0738 57.6286 9.5816 -68.6460 -59.0645
3.1000 11.0938 12.9956 58.0545 9.9038 -69.8598 -59.9560
3.0000 26.5653 28.9503 58.4608 10.2285 -71.0739 -60.8454
2.9000 54.7459 57.6158 58.8820 10.5557 -72.3072 -61.7514
2.8000 106.4965 109.8705 59.2981 10.8844 -73.5560 -62.6717
2.7000 203.4530 207.3201 59.7321 11.2117 -74.8104 -63.5987
2.6000 390.2832 394.6606 60.1718 11.5414 -76.0901 -64.5488
2.5000 763.8541 768.7352 60.6231 11.8694 -77.3731 -65.5036
2.4000 1545.2813 1550.6399 61.0889 12.1964 -78.6430 -66.4467
2.3000 3269.8900 3275.7240 61.5806 12.5201 -79.9336 -67.4135
2.2000 7322.8217 7329.1288 62.0928 12.8431 -81.2420 -68.3989
2.1000 17564.8719 17571.6289 62.6209 13.1641 -82.5415 -69.3773
2.0000 45695.2403 45702.4102 63.1719 13.4819 -83.8197 -70.3378
1.9000 130654.9301 130662.5050 63.7360 13.7938 -85.0904 -71.2966
1.8000 416505.5278 416513.5251 64.3304 14.1001 -86.3751 -72.2749
1.7000 1503501.0091 1503509.5179 64.9387 14.4008 -87.6413 -73.2405
1.6000 6249656.3693 6249665.4136 65.5735 14.6951 -88.9031 -74.2080
1.5000 30421900.8746 30421913.0349 66.2380 14.9844 -90.1628 -75.1784
1.4000 175512184.0187 175512218.9089 66.9256 15.2645 -91.4219 -76.1574
1.3000 1190510427.2822 1190510539.3620 67.6221 15.5372 -92.6717 -77.1344
