# 0-dist(Ang),1-dGtot,2-dGvac,3-dGele,4-dGdis,5-dGcav,6-dGvdw(kT)
13.5000 0.0000 0.0000 0.0000 0.0000 0.0000 0.0000
13.4000 0.0007 0.0001 1.4166 0.0730 -1.4890 -1.4160
13.3000 0.0045 0.0003 2.8274 0.1457 -2.9690 -2.8233
13.2000 0.0096 0.0006 4.2441 0.2184 -4.4534 -4.2351
13.1000 0.0089 0.0010 5.6630 0.2907 -5.9458 -5.6551
13.0000 0.0074 0.0014 7.0777 0.3627 -7.4344 -7.0717
12.9000 0.0011 0.0012 8.5005 0.4345 -8.9350 -8.5005
12.8000 0.0033 0.0008 9.9212 0.5072 -10.4260 -9.9187
12.7000 0.0038 -0.0001 11.3395 0.5765 -11.9121 -11.3356
12.6000 0.0082 -0.0016 12.7492 0.6508 -13.3903 -12.7395
12.5000 0.0120 -0.0036 14.1681 0.7235 -14.8764 -14.1529
12.4000 0.0049 -0.0057 15.5682 0.7960 -16.3539 -15.5579
12.3000 0.0024 -0.0082 16.9883 0.8673 -17.8453 -16.9780
12.2000 -0.0117 -0.0109 18.4086 0.9406 -19.3504 -18.4097
12.1000 -0.0381 -0.0136 19.8206 1.0155 -20.8615 -19.8460
12.0000 -0.0586 -0.0174 21.2336 1.0889 -22.3643 -21.2754
11.9000 -0.0847 -0.0249 22.6392 1.1640 -23.8634 -22.6995
11.8000 -0.1182 -0.0319 24.0475 1.2392 -25.3735 -24.1343
11.7000 -0.1423 -0.0383 25.4508 1.3144 -26.8697 -25.5554
11.6000 -0.1715 -0.0446 26.8465 1.3870 -28.3609 -26.9738
11.5000 -0.2008 -0.0498 28.2538 1.4612 -29.8665 -28.4053
11.4000 -0.2186 -0.0544 29.6682 1.5361 -31.3689 -29.8327
11.3000 -0.2321 -0.0593 31.0865 1.6099 -32.8695 -31.2596
11.2000 -0.2546 -0.0649 32.4890 1.6837 -34.3626 -32.6789
11.1000 -0.2732 -0.0711 33.8939 1.7567 -35.8529 -34.0962
11.0000 -0.2969 -0.0774 35.3178 1.8319 -37.3695 -35.5375
10.9000 -0.3086 -0.0835 36.7546 1.9070 -38.8869 -36.9799
10.8000 -0.3287 -0.0896 38.1740 1.9826 -40.3959 -38.4133
10.7000 -0.3467 -0.0957 39.5999 2.0547 -41.9058 -39.8511
10.6000 -0.3601 -0.1010 41.0156 2.1290 -43.4040 -41.2749
10.5000 -0.3689 -0.1071 42.4313 2.2016 -44.8949 -42.6933
10.4000 -0.3908 -0.1144 43.8633 2.2759 -46.4158 -44.1399
10.3000 -0.4037 -0.1207 45.2794 2.3462 -47.9088 -45.5625
10.2000 -0.4151 -0.1264 46.7025 2.4160 -49.4076 -46.9916
10.1000 -0.4144 -0.1355 48.1315 2.4846 -50.8953 -48.4108
10.0000 -0.4345 -0.1489 49.5502 2.5535 -52.3900 -49.8364
9.9000 -0.4457 -0.1627 50.9681 2.6205 -53.8723 -51.2518
9.8000 -0.4484 -0.1762 52.3862 2.6898 -55.3487 -52.6589
9.7000 -0.4467 -0.1906 53.8124 2.7590 -56.8280 -54.0690
9.6000 -0.4262 -0.2025 55.2362 2.8296 -58.2900 -55.4604
9.5000 -0.4015 -0.2139 56.6642 2.9016 -59.7538 -56.8522
9.4000 -0.3648 -0.2258 58.0853 2.9723 -61.1970 -58.2247
9.3000 -0.3180 -0.2406 59.5087 3.0445 -62.6311 -59.5866
9.2000 -0.2802 -0.2582 60.9269 3.1210 -64.0703 -60.9493
9.1000 -0.2165 -0.2759 62.3482 3.1950 -65.4843 -62.2892
9.0000 -0.1798 -0.2930 63.7569 3.2758 -66.9202 -63.6445
8.9000 -0.1508 -0.3117 65.1771 3.3578 -68.3745 -65.0167
8.8000 -0.1195 -0.3377 66.6123 3.4442 -69.8388 -66.3946
8.7000 -0.1194 -0.3642 68.0300 3.5345 -71.3202 -67.7857
8.6000 -0.1384 -0.3939 69.4596 3.6238 -72.8284 -69.2046
8.5000 -0.1716 -0.4228 70.8889 3.7146 -74.3528 -70.6382
8.4000 -0.2197 -0.4536 72.3095 3.8078 -75.8838 -72.0760
8.3000 -0.2916 -0.4852 73.7389 3.9006 -77.4463 -73.5457
8.2000 -0.3614 -0.5162 75.1577 3.9922 -78.9954 -75.0032
8.1000 -0.4455 -0.5486 76.5775 4.0846 -80.5593 -76.4747
8.0000 -0.5287 -0.5782 78.0015 4.1728 -82.1250 -77.9522
7.9000 -0.6277 -0.6098 79.4385 4.2599 -83.7164 -79.4565
7.8000 -0.7242 -0.6440 80.8674 4.3428 -85.2904 -80.9476
7.7000 -0.8393 -0.6820 82.2932 4.4244 -86.8752 -82.4508
7.6000 -0.9620 -0.7223 83.7230 4.5050 -88.4678 -83.9628
7.5000 -1.0963 -0.7659 85.1533 4.5804 -90.0644 -85.4839
7.4000 -1.2304 -0.8129 86.5702 4.6549 -91.6429 -86.9880
7.3000 -1.3557 -0.8610 88.0027 4.7276 -93.2254 -88.4978
7.2000 -1.4924 -0.9097 89.4174 4.8016 -94.8020 -90.0004
7.1000 -1.6012 -0.9608 90.8365 4.8757 -96.3529 -91.4772
7.0000 -1.6939 -1.0150 92.2580 4.9492 -97.8862 -92.9370
6.9000 -1.7489 -1.0727 93.6880 5.0248 -99.3893 -94.3646
6.8000 -1.7474 -1.1333 95.1179 5.1018 -100.8342 -95.7323
6.7000 -1.6812 -1.1979 96.5424 5.1836 -102.2096 -97.0260
6.6000 -1.5323 -1.2664 97.9690 5.2627 -103.4979 -98.2352
6.5000 -1.2770 -1.3395 99.3907 5.3466 -104.6754 -99.3288
6.4000 -0.9067 -1.4175 100.8264 5.4317 -105.7477 -100.3160
6.3000 -0.4330 -1.5018 102.2443 5.5238 -106.6999 -101.1760
6.2000 0.0528 -1.5933 103.6563 5.6297 -107.6404 -102.0107
6.1000 0.4611 -1.6930 105.0891 5.7532 -108.6887 -102.9356
6.0000 0.7196 -1.8015 106.5302 5.8987 -109.9083 -104.0096
5.9000 0.8675 -1.9199 107.9685 6.0619 -111.2436 -105.1817
5.8000 0.9553 -2.0491 109.4118 6.2420 -112.6499 -106.4079
5.7000 1.0008 -2.1904 110.8501 6.4377 -114.0973 -107.6596
5.6000 0.9850 -2.3445 112.3050 6.6459 -115.6220 -108.9762
5.5000 0.9245 -2.5130 113.7658 6.8658 -117.1948 -110.3290
5.4000 0.8245 -2.6972 115.2110 7.0978 -118.7878 -111.6899
5.3000 0.7114 -2.8988 116.6712 7.3400 -120.4017 -113.0618
5.2000 0.5621 -3.1191 118.1229 7.5891 -122.0319 -114.4428
5.1000 0.3522 -3.3600 119.5749 7.8531 -123.7168 -115.8637
5.0000 0.1146 -3.6233 121.0258 8.1248 -125.4137 -117.2889
4.9000 -0.1640 -3.9108 122.4623 8.4063 -127.1225 -118.7163
4.8000 -0.4850 -4.2243 123.8972 8.6972 -128.8560 -120.1587
4.7000 -0.8480 -4.5651 125.3454 8.9964 -130.6256 -121.6292
4.6000 -1.2550 -4.9340 126.7835 9.3041 -132.4094 -123.1054
4.5000 -1.7074 -5.3309 128.2159 9.6184 -134.2116 -124.5932
4.4000 -2.2074 -5.7540 129.6549 9.9398 -136.0489 -126.1091
4.3000 -2.7368 -6.1986 131.0916 10.2678 -137.8983 -127.6305
4.2000 -3.2884 -6.6559 132.5352 10.6005 -139.7687 -129.1682
4.1000 -3.8649 -7.1103 133.9662 10.9413 -141.6625 -130.7212
4.0000 -4.4294 -7.5357 135.3824 11.2843 -143.5613 -132.2770
3.9000 -4.9415 -7.8891 136.7985 11.6330 -145.4845 -133.8516
3.8000 -5.3193 -8.1020 138.2369 11.9830 -147.4379 -135.4548
3.7000 -5.4531 -8.0644 139.6634 12.3361 -149.3888 -137.0527
3.6000 -5.1835 -7.6012 141.0907 12.6893 -151.3629 -138.6736
3.5000 -4.2163 -6.4320 142.5210 13.0468 -153.3527 -140.3060
3.4000 -2.1003 -4.1055 143.9364 13.4019 -155.3337 -141.9318
3.3000 1.9037 0.1128 145.3719 13.7562 -157.3376 -143.5814
3.2000 8.9790 7.4331 146.7902 14.1115 -159.3564 -145.2449
3.1000 21.1734 19.8849 148.2171 14.4650 -161.3943 -146.9293
3.0000 41.9634 40.9415 149.6290 14.8151 -163.4231 -148.6079
2.9000 77.4470 76.6999 151.0583 15.1657 -165.4777 -150.3121
2.8000 138.6513 138.1913 152.4826 15.5107 -167.5341 -152.0234
2.7000 246.2705 246.1111 153.8899 15.8515 -169.5830 -153.7315
2.6000 440.8261 440.9746 155.3121 16.1891 -171.6506 -155.4615
2.5000 805.6553 806.1312 156.7304 16.5207 -173.7284 -157.2077
2.4000 1522.1730 1522.9854 158.1379 16.8471 -175.7995 -158.9524
2.3000 3010.7975 3011.9524 159.5426 17.1692 -177.8701 -160.7009
2.2000 6314.9708 6316.4908 160.9421 17.4820 -179.9497 -162.4677
2.1000 14222.6480 14224.5414 162.3532 17.7860 -182.0438 -164.2578
2.0000 34793.0908 34795.3724 163.7539 18.0808 -184.1412 -166.0604
1.9000 93372.8219 93375.3556 165.1348 18.3644 -186.2079 -167.8435
1.8000 277253.7721 277256.6817 166.5061 18.6403 -188.2755 -169.6352
1.7000 918223.4701 918225.5424 167.8957 18.9040 -190.3585 -171.4546
1.6000 3418973.5596 3418972.4396 169.2905 19.1545 -192.4587 -173.3041
1.5000 14410819.2285 14410806.2852 170.6613 19.3911 -194.5369 -175.1458
1.4000 68812298.3521 68812246.4743 172.0213 19.6110 -196.5846 -176.9736
1.3000 365666028.0807 365665603.9490 173.3767 19.8170 -198.6343 -178.8174
