# 0-dist(Ang),1-dGtot,2-dGvac,3-dGele,4-dGdis,5-dGcav,6-dGvdw(kT)
13.5000 0.0000 0.0000 0.0000 0.0000 0.0000 0.0000
13.4000 0.0144 0.0000 -0.4729 0.0078 0.4794 0.4871
13.3000 0.0141 0.0000 -0.9428 0.0168 0.9400 0.9568
13.2000 0.0264 0.0000 -1.4402 0.0261 1.4404 1.4665
13.1000 0.0371 0.0000 -1.9336 0.0340 1.9367 1.9707
13.0000 0.0393 0.0000 -2.4156 0.0439 2.4110 2.4549
12.9000 0.0464 0.0000 -2.8899 0.0531 2.8831 2.9362
12.8000 0.0627 0.0000 -3.3568 0.0612 3.3583 3.4194
12.7000 0.0754 0.0000 -3.8262 0.0699 3.8318 3.9016
12.6000 0.1017 0.0000 -4.3001 0.0792 4.3226 4.4018
12.5000 0.0683 0.0000 -4.7806 0.0878 4.8057 4.8935
12.4000 0.1230 0.0000 -5.2595 0.0982 5.2843 5.3825
12.3000 0.1337 0.0000 -5.7098 0.1071 5.7364 5.8435
12.2000 0.1507 0.0000 -6.1793 0.1164 6.2136 6.3300
12.1000 0.1617 0.0000 -6.6527 0.1262 6.6883 6.8145
12.0000 0.1788 -0.0000 -7.1181 0.1339 7.1630 7.2969
11.9000 0.2028 -0.0027 -7.5758 0.1421 7.6391 7.7813
11.8000 0.2290 -0.0077 -8.0537 0.1504 8.1399 8.2903
11.7000 0.2310 -0.0142 -8.5170 0.1591 8.6030 8.7622
11.6000 0.2407 -0.0213 -9.0026 0.1673 9.0974 9.2647
11.5000 0.2562 -0.0295 -9.4655 0.1757 9.5755 9.7512
11.4000 0.2671 -0.0391 -9.9489 0.1855 10.0695 10.2551
11.3000 0.2812 -0.0501 -10.4255 0.1943 10.5625 10.7568
11.2000 0.2730 -0.0616 -10.8844 0.2023 11.0166 11.2189
11.1000 0.2777 -0.0736 -11.3684 0.2115 11.5081 11.7197
11.0000 0.2767 -0.0862 -11.8434 0.2217 11.9845 12.2062
10.9000 0.2738 -0.0949 -12.3120 0.2311 12.4495 12.6806
10.8000 0.2823 -0.1009 -12.7952 0.2410 12.9375 13.1784
10.7000 0.2966 -0.1036 -13.2754 0.2496 13.4260 13.6756
10.6000 0.3071 -0.1061 -13.7446 0.2590 13.8988 14.1578
10.5000 0.3208 -0.1081 -14.1834 0.2685 14.3439 14.6123
10.4000 0.3374 -0.1095 -14.6545 0.2774 14.8240 15.1014
10.3000 0.3473 -0.1113 -15.1076 0.2861 15.2802 15.5663
10.2000 0.3725 -0.1151 -15.5718 0.2956 15.7639 16.0595
10.1000 0.3826 -0.1224 -16.0272 0.3054 16.2270 16.5324
10.0000 0.3575 -0.1341 -16.4882 0.3157 16.7089 17.0245
9.9000 0.4110 -0.1502 -16.9471 0.3259 17.1825 17.5084
9.8000 0.4335 -0.1686 -17.4105 0.3346 17.6781 18.0128
9.7000 0.4316 -0.1926 -17.8740 0.3444 18.1538 18.4983
9.6000 0.4422 -0.2176 -18.3385 0.3535 18.6449 18.9984
9.5000 0.4424 -0.2437 -18.8003 0.3631 19.1235 19.4866
9.4000 0.4311 -0.2700 -19.2632 0.3722 19.5922 19.9645
9.3000 0.4364 -0.2955 -19.7455 0.3824 20.0951 20.4775
9.2000 0.4329 -0.3202 -20.1998 0.3920 20.5611 20.9531
9.1000 0.4415 -0.3425 -20.6671 0.4016 21.0495 21.4511
9.0000 0.4551 -0.3616 -21.1542 0.4116 21.5595 21.9711
8.9000 0.4698 -0.3792 -21.6238 0.4210 22.0519 22.4729
8.8000 0.4857 -0.3904 -22.1000 0.4316 22.5448 22.9763
8.7000 0.5060 -0.3990 -22.5656 0.4420 23.0289 23.4709
8.6000 0.5369 -0.4090 -23.0266 0.4515 23.5214 23.9728
8.5000 0.5622 -0.4209 -23.4669 0.4606 23.9898 24.4504
8.4000 0.5778 -0.4366 -23.9155 0.4714 24.4587 24.9301
8.3000 0.6141 -0.4547 -24.3676 0.4812 24.9552 25.4365
8.2000 0.6424 -0.4755 -24.8047 0.4907 25.4323 25.9229
8.1000 0.6478 -0.5018 -25.2516 0.4999 25.9014 26.4013
8.0000 0.6674 -0.5334 -25.6888 0.5092 26.3807 26.8899
7.9000 0.6810 -0.5701 -26.1144 0.5181 26.8476 27.3657
7.8000 0.6816 -0.6129 -26.5558 0.5274 27.3232 27.8506
7.7000 0.6758 -0.6614 -26.9715 0.5349 27.7740 28.3089
7.6000 0.6596 -0.7122 -27.3866 0.5442 28.2145 28.7587
7.5000 0.5777 -0.7652 -27.7826 0.5523 28.6179 29.1702
7.4000 0.5877 -0.8201 -28.1974 0.5606 29.0447 29.6053
7.3000 0.5606 -0.8736 -28.5979 0.5689 29.4634 30.0322
7.2000 0.5332 -0.9284 -28.9878 0.5768 29.8729 30.4497
7.1000 0.5209 -0.9827 -29.3941 0.5862 30.3118 30.8980
7.0000 0.5056 -1.0347 -29.8130 0.5948 30.7587 31.3535
6.9000 0.4856 -1.0860 -30.2308 0.6038 31.1987 31.8026
6.8000 0.4847 -1.1346 -30.6405 0.6149 31.6452 32.2601
6.7000 0.4977 -1.1828 -31.0916 0.6260 32.1465 32.7724
6.6000 0.5220 -1.2333 -31.5240 0.6372 32.6422 33.2795
6.5000 0.5767 -1.2867 -31.9442 0.6481 33.1597 33.8079
6.4000 0.6189 -1.3451 -32.3894 0.6615 33.6922 34.3536
6.3000 0.6747 -1.4084 -32.8513 0.6754 34.2592 34.9347
6.2000 0.7325 -1.4764 -33.3231 0.6907 34.8416 35.5323
6.1000 0.8030 -1.5503 -33.8128 0.7074 35.4590 36.1664
6.0000 0.8871 -1.6321 -34.2890 0.7246 36.0839 36.8085
5.9000 0.9584 -1.7218 -34.7918 0.7417 36.7305 37.4722
5.8000 1.0398 -1.8168 -35.2845 0.7601 37.3810 38.1412
5.7000 1.1223 -1.9172 -35.7678 0.7778 38.0298 38.8075
5.6000 1.1924 -2.0235 -36.2472 0.7959 38.6673 39.4632
5.5000 1.2231 -2.1361 -36.7122 0.8144 39.2818 40.0963
5.4000 1.2723 -2.2526 -37.1550 0.8326 39.8720 40.7046
5.3000 1.2814 -2.3746 -37.5812 0.8507 40.4113 41.2620
5.2000 1.2457 -2.5029 -37.9728 0.8687 40.8776 41.7462
5.1000 1.2002 -2.6381 -38.3742 0.8863 41.3511 42.2374
5.0000 1.0815 -2.7800 -38.7467 0.9035 41.7296 42.6331
4.9000 0.9571 -2.9291 -39.0942 0.9214 42.0591 42.9805
4.8000 0.7336 -3.0859 -39.4191 0.9389 42.2997 43.2386
4.7000 0.4805 -3.2515 -39.7086 0.9557 42.4850 43.4407
4.6000 0.2224 -3.4274 -40.0203 0.9735 42.6966 43.6701
4.5000 0.0004 -3.6164 -40.3776 0.9922 43.0023 43.9946
4.4000 -0.0924 -3.8195 -40.7535 1.0124 43.4683 44.4807
4.3000 -0.0199 -4.0372 -41.1014 1.0316 44.0871 45.1187
4.2000 0.2201 -4.2711 -41.3422 1.0502 44.7832 45.8334
4.1000 0.5682 -4.5227 -41.3971 1.0683 45.4195 46.4878
4.0000 0.9577 -4.7935 -41.2416 1.0864 45.9063 46.9927
3.9000 1.3524 -5.0854 -40.8526 1.1023 46.1879 47.2902
3.8000 1.7329 -5.4005 -40.2574 1.1177 46.2727 47.3904
3.7000 2.1209 -5.7412 -39.4821 1.1344 46.2095 47.3440
3.6000 2.5252 -6.1102 -38.5470 1.1527 46.0294 47.1822
3.5000 2.9241 -6.5105 -37.4546 1.1740 45.7150 46.8890
3.4000 3.3225 -6.9455 -36.2542 1.1990 45.3230 46.5220
3.3000 3.7009 -7.4190 -34.9334 1.2290 44.8240 46.0530
3.2000 4.0610 -7.9353 -33.5189 1.2649 44.2500 45.5149
3.1000 4.3684 -8.4991 -32.0130 1.3055 43.5994 44.9049
3.0000 4.6642 -9.1159 -30.4400 1.3549 42.8649 44.2197
2.9000 4.8289 -9.7914 -28.8314 1.4121 42.0395 43.4516
2.8000 4.8675 -10.5320 -27.2087 1.4811 41.1268 42.6079
2.7000 4.7820 -11.3445 -25.5634 1.5586 40.1309 41.6895
2.6000 4.5288 -12.2355 -23.8999 1.6462 39.0176 40.6638
2.5000 4.1014 -13.2115 -22.2393 1.7435 37.8084 39.5519
2.4000 3.5104 -14.2771 -20.5877 1.8520 36.5230 38.3751
2.3000 2.7604 -15.4334 -18.9617 1.9702 35.1851 37.1553
2.2000 1.8634 -16.6748 -17.3476 2.0978 33.7878 35.8856
2.1000 0.8330 -17.9820 -15.7430 2.2322 32.3254 34.5576
2.0000 -0.2722 -19.3115 -14.1551 2.3751 30.8189 33.1940
1.9000 -1.3629 -20.5741 -12.5908 2.5244 29.2770 31.8014
1.8000 -2.2575 -21.5953 -11.0353 2.6805 27.6921 30.3726
1.7000 -2.6106 -22.0385 -9.4840 2.8405 26.0711 28.9115
1.6000 -1.7524 -21.2474 -7.9392 3.0064 24.4274 27.4338
1.5000 1.6319 -17.9077 -6.4190 3.1771 22.7810 25.9581
1.4000 10.2943 -9.2660 -4.8982 3.3526 21.1055 24.4581
1.3000 30.4014 10.8390 -3.3833 3.5321 19.4132 22.9453
