# 0-dist(Ang),1-dGtot,2-dGvac,3-dGele,4-dGdis,5-dGcav,6-dGvdw(kT)
13.5000 0.0000 0.0000 0.0000 0.0000 0.0000 0.0000
13.4000 0.0096 0.0007 -0.5938 -0.0423 0.6449 0.6027
13.3000 0.0137 0.0016 -1.2002 -0.0826 1.2949 1.2123
13.2000 0.0232 0.0026 -1.7999 -0.1239 1.9444 1.8204
13.1000 0.0350 0.0038 -2.4164 -0.1655 2.6131 2.4477
13.0000 0.0366 0.0042 -3.0272 -0.2069 3.2666 3.0597
12.9000 0.0550 0.0051 -3.6369 -0.2473 3.9341 3.6868
12.8000 0.0743 0.0064 -4.2448 -0.2881 4.6008 4.3127
12.7000 0.0857 0.0070 -4.8574 -0.3278 5.2638 4.9360
12.6000 0.0885 0.0072 -5.4614 -0.3680 5.9105 5.5424
12.5000 0.1016 0.0051 -6.0663 -0.4102 6.5728 6.1626
12.4000 0.1030 0.0007 -6.6821 -0.4497 7.2339 6.7842
12.3000 0.1061 -0.0039 -7.3032 -0.4896 7.9026 7.4130
12.2000 0.1177 -0.0087 -7.9187 -0.5302 8.5752 8.0449
12.1000 0.1284 -0.0159 -8.5320 -0.5706 9.2467 8.6761
12.0000 0.1290 -0.0248 -9.1493 -0.6107 9.9137 9.3030
11.9000 0.1327 -0.0359 -9.7605 -0.6509 10.5800 9.9291
11.8000 0.1382 -0.0479 -10.3634 -0.6907 11.2401 10.5495
11.7000 0.1473 -0.0620 -10.9712 -0.7314 11.9120 11.1806
11.6000 0.1353 -0.0779 -11.5790 -0.7707 12.5632 11.7924
11.5000 0.1347 -0.0882 -12.1893 -0.8111 13.2233 12.4123
11.4000 0.1306 -0.0998 -12.7944 -0.8506 13.8755 13.0249
11.3000 0.1282 -0.1103 -13.3989 -0.8908 14.5283 13.6376
11.2000 0.1236 -0.1178 -14.0069 -0.9311 15.1795 14.2485
11.1000 0.1192 -0.1251 -14.6201 -0.9710 15.8356 14.8647
11.0000 0.1136 -0.1324 -15.2450 -1.0099 16.5010 15.4911
10.9000 0.1113 -0.1384 -15.8683 -1.0496 17.1678 16.1182
10.8000 0.1019 -0.1455 -16.4899 -1.0915 17.8289 16.7374
10.7000 0.0963 -0.1531 -17.1102 -1.1327 18.4924 17.3597
10.6000 0.0864 -0.1599 -17.7375 -1.1721 19.1560 17.9838
10.5000 0.0834 -0.1676 -18.3527 -1.2125 19.8163 18.6038
10.4000 0.0886 -0.1754 -18.9610 -1.2529 20.4780 19.2251
10.3000 0.0910 -0.1839 -19.5718 -1.2938 21.1407 19.8469
10.2000 0.0907 -0.1933 -20.1893 -1.3363 21.8096 20.4733
10.1000 0.0889 -0.2037 -20.8027 -1.3778 22.4730 21.0951
10.0000 0.0999 -0.2147 -21.4025 -1.4191 23.1361 21.7170
9.9000 0.1149 -0.2255 -22.0037 -1.4595 23.8034 22.3440
9.8000 0.1316 -0.2370 -22.6069 -1.5005 24.4758 22.9753
9.7000 0.1491 -0.2478 -23.2041 -1.5418 25.1428 23.6011
9.6000 0.1748 -0.2598 -23.7990 -1.5827 25.8164 24.2337
9.5000 0.2106 -0.2724 -24.3865 -1.6255 26.4950 24.8694
9.4000 0.2462 -0.2866 -24.9695 -1.6665 27.1688 25.5023
9.3000 0.2650 -0.3034 -25.5591 -1.7052 27.8328 26.1276
9.2000 0.2930 -0.3200 -26.1470 -1.7442 28.5044 26.7602
9.1000 0.3111 -0.3384 -26.7390 -1.7835 29.1722 27.3887
9.0000 0.3250 -0.3570 -27.3425 -1.8202 29.8449 28.0246
8.9000 0.3178 -0.3783 -27.9582 -1.8550 30.5094 28.6544
8.8000 0.3089 -0.3968 -28.5663 -1.8902 31.1623 29.2721
8.7000 0.2891 -0.4152 -29.2014 -1.9256 31.8313 29.9057
8.6000 0.2711 -0.4336 -29.8512 -1.9590 32.5150 30.5560
8.5000 0.2408 -0.4510 -30.5160 -1.9887 33.1966 31.2079
8.4000 0.2169 -0.4693 -31.1924 -2.0191 33.8979 31.8788
8.3000 0.2006 -0.4887 -31.8925 -2.0478 34.6298 32.5820
8.2000 0.1924 -0.5094 -32.6130 -2.0772 35.3920 33.3149
8.1000 0.1928 -0.5320 -33.3248 -2.1055 36.1551 34.0496
8.0000 0.1945 -0.5565 -34.0308 -2.1332 36.9151 34.7819
7.9000 0.2087 -0.5827 -34.7204 -2.1628 37.6747 35.5119
7.8000 0.2273 -0.6094 -35.3907 -2.1920 38.4195 36.2275
7.7000 0.2346 -0.6394 -36.0224 -2.2221 39.1186 36.8965
7.6000 0.2336 -0.6728 -36.6332 -2.2528 39.7925 37.5397
7.5000 0.2345 -0.7097 -37.2246 -2.2837 40.4525 38.1688
7.4000 0.2270 -0.7488 -37.7964 -2.3152 41.0874 38.7722
7.3000 0.1924 -0.7899 -38.3386 -2.3474 41.6684 39.3211
7.2000 0.1513 -0.8333 -38.8507 -2.3819 42.2174 39.8355
7.1000 0.1046 -0.8798 -39.3478 -2.4173 42.7495 40.3323
7.0000 0.0491 -0.9304 -39.8240 -2.4509 43.2545 40.8036
6.9000 0.0031 -0.9855 -40.3092 -2.4862 43.7840 41.2978
6.8000 -0.0223 -1.0453 -40.7799 -2.5229 44.3258 41.8029
6.7000 -0.0392 -1.1100 -41.2429 -2.5596 44.8734 42.3137
6.6000 -0.0233 -1.1802 -41.7081 -2.5960 45.4609 42.8648
6.5000 0.0196 -1.2561 -42.1632 -2.6296 46.0684 43.4389
6.4000 0.0714 -1.3387 -42.6247 -2.6582 46.6929 44.0347
6.3000 0.1117 -1.4283 -43.0758 -2.6816 47.2972 44.6157
6.2000 0.1089 -1.5254 -43.5391 -2.6965 47.8699 45.1733
6.1000 0.0488 -1.6307 -44.0270 -2.7031 48.4095 45.7065
6.0000 -0.0379 -1.7451 -44.5456 -2.7029 48.9559 46.2531
5.9000 -0.1370 -1.8695 -45.1182 -2.6941 49.5447 46.8507
5.8000 -0.2439 -2.0047 -45.7650 -2.6746 50.2002 47.5256
5.7000 -0.2982 -2.1520 -46.4789 -2.6460 50.9786 48.3326
5.6000 -0.2989 -2.3127 -47.2812 -2.6035 51.8982 49.2947
5.5000 -0.2043 -2.4879 -48.1660 -2.5501 52.9995 50.4493
5.4000 0.0235 -2.6793 -49.1144 -2.4833 54.3004 51.8170
5.3000 0.3926 -2.8885 -50.1111 -2.4061 55.7982 53.3920
5.2000 0.8355 -3.1175 -51.0856 -2.3140 57.3525 55.0385
5.1000 1.3051 -3.3683 -51.9548 -2.2097 58.8378 56.6281
5.0000 1.7187 -3.6429 -52.6411 -2.0927 60.0955 58.0028
4.9000 2.0243 -3.9438 -53.1407 -1.9635 61.0722 59.1087
4.8000 2.1883 -4.2733 -53.4470 -1.8202 61.7288 59.9087
4.7000 2.1972 -4.6338 -53.6049 -1.6635 62.0994 60.4359
4.6000 2.0539 -5.0274 -53.6722 -1.4950 62.2485 60.7535
4.5000 1.7799 -5.4558 -53.6924 -1.3138 62.2418 60.9280
4.4000 1.3888 -5.9198 -53.6986 -1.1231 62.1303 61.0072
4.3000 0.8923 -6.4185 -53.6981 -0.9249 61.9338 61.0089
4.2000 0.3193 -6.9482 -53.7041 -0.7178 61.6893 60.9715
4.1000 -0.3182 -7.5005 -53.7221 -0.5037 61.4081 60.9045
4.0000 -0.9997 -8.0594 -53.7503 -0.2832 61.0934 60.8101
3.9000 -1.6799 -8.5965 -53.7872 -0.0559 60.7600 60.7040
3.8000 -2.3194 -9.0635 -53.8341 0.1761 60.4023 60.5784
3.7000 -2.8140 -9.3798 -53.8864 0.4109 60.0415 60.4524
3.6000 -3.0519 -9.4120 -53.9502 0.6501 59.6606 60.3106
3.5000 -2.8015 -8.9413 -54.0195 0.8948 59.2649 60.1597
3.4000 -1.6978 -7.6073 -54.0866 1.1412 58.8552 59.9964
3.3000 0.8454 -4.8161 -54.1604 1.3898 58.4323 59.8222
3.2000 5.8147 0.4175 -54.2361 1.6418 57.9916 59.6334
3.1000 14.8688 9.7388 -54.3090 1.8964 57.5427 59.4391
3.0000 30.7685 25.9167 -54.3883 2.1517 57.0886 59.2403
2.9000 58.2134 53.6520 -54.4616 2.4104 56.6126 59.0230
2.8000 105.2569 100.9930 -54.5341 2.6699 56.1281 58.7980
2.7000 185.8026 181.8306 -54.5985 2.9301 55.6404 58.5705
2.6000 323.9880 320.3078 -54.6534 3.1900 55.1437 58.3337
2.5000 561.9896 558.5998 -54.6985 3.4506 54.6380 58.0886
2.4000 973.6459 970.5451 -54.7300 3.7104 54.1206 57.8310
2.3000 1687.9684 1685.1553 -54.7438 3.9710 53.5860 57.5570
2.2000 2928.5516 2926.0140 -54.7438 4.2288 53.0531 57.2819
2.1000 5076.3962 5074.1264 -54.7242 4.4867 52.5074 56.9941
2.0000 8761.9261 8759.9120 -54.6781 4.7415 51.9520 56.6934
1.9000 14979.3382 14977.5724 -54.6070 4.9974 51.3753 56.3726
1.8000 25179.6155 25178.0857 -54.5131 5.2482 50.7962 56.0444
1.7000 41227.2539 41225.9329 -54.3876 5.4958 50.2122 55.7080
1.6000 65011.6046 65010.4919 -54.2362 5.7403 49.6099 55.3501
1.5000 97506.4611 97505.5346 -54.0506 5.9798 49.0065 54.9863
1.4000 137402.1987 137401.4348 -53.8403 6.2148 48.3924 54.6073
1.3000 180241.8119 180241.2093 -53.6004 6.4415 47.7681 54.2096
