# 0-dist(Ang),1-dGtot,2-dGvac,3-dGele,4-dGdis,5-dGcav,6-dGvdw(kT)
13.5000 0.0000 0.0000 0.0000 0.0000 0.0000 0.0000
13.4100 0.0009 0.0000 -0.6869 -0.0049 0.6926 0.6877
13.3100 -0.0026 0.0000 -1.3792 -0.0104 1.3871 1.3766
13.2100 0.0026 0.0000 -2.0869 -0.0156 2.1052 2.0895
13.1100 0.0153 0.0000 -2.7953 -0.0189 2.8295 2.8107
13.0100 0.0255 0.0000 -3.4873 -0.0248 3.5376 3.5128
12.9100 0.0280 0.0000 -4.1897 -0.0285 4.2462 4.2177
12.8100 0.0370 0.0000 -4.9057 -0.0320 4.9747 4.9426
12.7100 0.0467 0.0000 -5.6083 -0.0381 5.6930 5.6549
12.6100 0.0449 0.0000 -6.3083 -0.0440 6.3971 6.3531
12.5100 0.0581 0.0000 -6.9889 -0.0509 7.0978 7.0469
12.4100 0.0736 0.0000 -7.6699 -0.0569 7.8003 7.7434
12.3100 0.0809 0.0000 -8.3717 -0.0623 8.5149 8.4527
12.2100 0.1081 0.0000 -9.0475 -0.0688 9.2244 9.1556
12.1100 0.0956 0.0000 -9.7268 -0.0731 9.8955 9.8225
12.0100 0.0991 0.0000 -10.4132 -0.0784 10.5908 10.5124
11.9100 0.1000 -0.0023 -11.0948 -0.0844 11.2816 11.1972
11.8100 0.0898 -0.0070 -11.8047 -0.0893 11.9908 11.9015
11.7100 0.0866 -0.0138 -12.5018 -0.0943 12.6965 12.6022
11.6100 0.0812 -0.0228 -13.2150 -0.1015 13.4207 13.3192
11.5100 0.0660 -0.0342 -13.9231 -0.1067 14.1301 14.0234
11.4100 0.0581 -0.0478 -14.6180 -0.1127 14.8368 14.7241
11.3100 0.0230 -0.0631 -15.3335 -0.1191 15.5390 15.4199
11.2100 0.0025 -0.0798 -16.0386 -0.1245 16.2456 16.1211
11.1100 -0.0036 -0.0975 -16.7001 -0.1302 16.9244 16.7942
11.0100 -0.0111 -0.1152 -17.3750 -0.1372 17.6164 17.4792
10.9100 -0.0044 -0.1320 -18.0588 -0.1429 18.3295 18.1865
10.8100 -0.0148 -0.1446 -18.7720 -0.1480 19.0498 18.9018
10.7100 -0.0129 -0.1541 -19.4802 -0.1519 19.7733 19.6214
10.6100 0.0046 -0.1611 -20.1779 -0.1581 20.5016 20.3435
10.5100 0.0217 -0.1689 -20.8348 -0.1640 21.1894 21.0254
10.4100 0.0455 -0.1791 -21.5492 -0.1693 21.9431 21.7738
10.3100 0.0458 -0.1930 -22.2505 -0.1717 22.6610 22.4893
10.2100 0.0609 -0.2112 -22.9276 -0.1775 23.3773 23.1998
10.1100 0.0928 -0.2343 -23.5990 -0.1838 24.1099 23.9261
10.0100 0.1028 -0.2641 -24.2491 -0.1880 24.8038 24.6158
9.9100 0.1111 -0.2985 -24.9174 -0.1912 25.5181 25.3269
9.8100 0.1033 -0.3384 -25.5901 -0.1974 26.2293 26.0319
9.7100 0.0964 -0.3833 -26.2428 -0.2027 26.9251 26.7225
9.6100 0.0915 -0.4323 -26.8913 -0.2070 27.6221 27.4152
9.5100 0.0805 -0.4836 -27.5387 -0.2126 28.3153 28.1028
9.4100 0.0763 -0.5383 -28.1896 -0.2172 29.0214 28.8042
9.3100 0.0723 -0.5950 -28.8266 -0.2227 29.7166 29.4940
9.2100 0.0499 -0.6544 -29.4697 -0.2274 30.4013 30.1739
9.1100 0.0385 -0.7165 -30.0928 -0.2329 31.0807 30.8478
9.0100 0.0177 -0.7810 -30.7246 -0.2393 31.7626 31.5233
8.9100 0.0130 -0.8467 -31.3856 -0.2450 32.4903 32.2453
8.8100 0.0069 -0.9138 -32.0313 -0.2508 33.2028 32.9519
8.7100 0.0107 -0.9784 -32.6861 -0.2578 33.9329 33.6751
8.6100 0.0070 -1.0416 -33.3381 -0.2626 34.6493 34.3867
8.5100 0.0235 -1.1039 -33.9791 -0.2685 35.3750 35.1065
8.4100 0.0380 -1.1694 -34.5849 -0.2739 36.0662 35.7923
8.3100 0.0596 -1.2386 -35.2252 -0.2821 36.8055 36.5234
8.2100 0.0669 -1.3109 -35.8527 -0.2889 37.5193 37.2304
8.1100 0.0992 -1.3879 -36.4840 -0.2956 38.2666 37.9710
8.0100 0.1237 -1.4694 -37.1148 -0.3020 39.0099 38.7078
7.9100 0.1262 -1.5582 -37.7700 -0.3084 39.7627 39.4543
7.8100 0.1359 -1.6541 -38.3821 -0.3167 40.4886 40.1720
7.7100 0.1319 -1.7572 -38.9670 -0.3228 41.1788 40.8560
7.6100 0.1399 -1.8657 -39.5545 -0.3300 41.8900 41.5599
7.5100 0.1530 -1.9779 -40.1225 -0.3378 42.5909 42.2531
7.4100 0.1378 -2.0944 -40.7058 -0.3444 43.2821 42.9377
7.3100 0.1171 -2.2149 -41.2793 -0.3493 43.9607 43.6113
7.2100 0.0890 -2.3390 -41.8270 -0.3562 44.6111 44.2550
7.1100 0.0505 -2.4669 -42.4183 -0.3614 45.2970 44.9357
7.0100 0.0263 -2.5999 -42.9910 -0.3665 45.9836 45.6171
6.9100 0.0041 -2.7376 -43.5797 -0.3702 46.6916 46.3214
6.8100 -0.0310 -2.8806 -44.1876 -0.3735 47.4107 47.0372
6.7100 -0.0551 -3.0284 -44.7971 -0.3752 48.1457 47.7705
6.6100 -0.0770 -3.1814 -45.4143 -0.3779 48.8968 48.5189
6.5100 -0.0706 -3.3391 -46.0373 -0.3812 49.6871 49.3059
6.4100 -0.0605 -3.5024 -46.6670 -0.3819 50.4910 50.1090
6.3100 -0.0409 -3.6705 -47.2774 -0.3855 51.2927 50.9072
6.2100 -0.0165 -3.8444 -47.8659 -0.3876 52.0816 51.6940
6.1100 -0.0004 -4.0240 -48.4480 -0.3908 52.8627 52.4719
6.0100 0.0586 -4.2109 -49.0090 -0.3951 53.6738 53.2787
5.9100 0.1163 -4.4048 -49.5352 -0.4013 54.4577 54.0564
5.8100 0.1630 -4.6065 -50.0132 -0.4103 55.1930 54.7827
5.7100 0.2105 -4.8171 -50.4361 -0.4207 55.8845 55.4638
5.6100 0.2593 -5.0369 -50.8233 -0.4305 56.5502 56.1197
5.5100 0.2901 -5.2671 -51.1130 -0.4423 57.1127 56.6704
5.4100 0.2924 -5.5072 -51.3789 -0.4513 57.6300 57.1787
5.3100 0.2911 -5.7585 -51.5668 -0.4584 58.0751 57.6167
5.2100 0.2391 -6.0212 -51.6881 -0.4670 58.4156 57.9486
5.1100 0.1360 -6.2968 -51.7656 -0.4746 58.6733 58.1986
5.0100 -0.0110 -6.5857 -51.8497 -0.4819 58.9065 58.4246
4.9100 -0.2212 -6.8882 -51.9584 -0.4911 59.1170 58.6258
4.8100 -0.4555 -7.2060 -52.1399 -0.4993 59.3903 58.8910
4.7100 -0.7096 -7.5393 -52.4135 -0.5043 59.7481 59.2437
4.6100 -0.9224 -7.8898 -52.7809 -0.5096 60.2583 59.7487
4.5100 -1.0724 -8.2584 -53.2422 -0.5124 60.9412 60.4288
4.4100 -1.1434 -8.6470 -53.7675 -0.5134 61.7851 61.2717
4.3100 -1.1280 -9.0564 -54.3204 -0.5103 62.7595 62.2492
4.2100 -1.0633 -9.4887 -54.8806 -0.5057 63.8123 63.3066
4.1100 -0.9397 -9.9458 -55.4585 -0.5025 64.9676 64.4651
4.0100 -0.7410 -10.4289 -56.0694 -0.4925 66.2504 65.7579
3.9100 -0.4899 -10.9408 -56.7138 -0.4793 67.6445 67.1652
3.8100 -0.1666 -11.4846 -57.3718 -0.4643 69.1546 68.6903
3.7100 0.2105 -12.0630 -58.0889 -0.4452 70.8082 70.3630
3.6100 0.6604 -12.6796 -58.7860 -0.4215 72.5481 72.1266
3.5100 1.1737 -13.3378 -59.4231 -0.3926 74.3279 73.9352
3.4100 1.6882 -14.0422 -59.9904 -0.3622 76.0835 75.7214
3.3100 2.1793 -14.7973 -60.4481 -0.3284 77.7538 77.4254
3.2100 2.6177 -15.6074 -60.7439 -0.2892 79.2588 78.9695
3.1100 2.9338 -16.4789 -60.8520 -0.2464 80.5117 80.2653
3.0100 3.1455 -17.4179 -60.8058 -0.1999 81.5697 81.3698
2.9100 3.1987 -18.4308 -60.5376 -0.1502 82.3177 82.1675
2.8100 3.1027 -19.5240 -60.1476 -0.0966 82.8713 82.7747
2.7100 2.8266 -20.7040 -59.5765 -0.0394 83.1468 83.1074
2.6100 2.3867 -21.9767 -58.9068 0.0195 83.2510 83.2705
2.5100 1.7697 -23.3459 -58.0948 0.0822 83.1283 83.2106
2.4100 0.9855 -24.8110 -57.1957 0.1462 82.8461 82.9923
2.3100 0.0635 -26.3623 -56.2467 0.2119 82.4610 82.6729
2.2100 -0.9753 -27.9732 -55.2301 0.2800 81.9483 82.2282
2.1100 -2.0762 -29.5842 -54.1970 0.3480 81.3572 81.7053
2.0100 -3.1119 -31.0723 -53.1434 0.4196 80.6846 81.1042
1.9100 -3.8151 -32.1875 -52.0716 0.4916 79.9527 80.4443
1.8100 -3.6856 -32.4197 -50.9997 0.5614 79.1729 79.7343
1.7100 -1.6452 -30.7023 -49.9431 0.6335 78.3673 79.0008
1.6100 4.6238 -24.7158 -48.9113 0.7047 77.5467 78.2514
1.5100 20.4236 -9.1489 -47.8909 0.7749 76.6891 77.4640
1.4100 58.7130 28.9495 -46.8930 0.8456 75.8115 76.6571
1.3100 153.5207 123.5768 -45.9198 0.9156 74.9488 75.8644
