# 0-dist(Ang),1-dGtot,2-dGvac,3-dGele,4-dGdis,5-dGcav,6-dGvdw(kT)
13.5000 0.0000 0.0000 0.0000 0.0000 0.0000 0.0000
13.4000 0.0098 0.0000 -0.6495 -0.0409 0.7002 0.6593
13.3000 0.0151 0.0000 -1.3068 -0.0828 1.4047 1.3219
13.2000 0.0267 0.0000 -1.9602 -0.1242 2.1110 1.9868
13.1000 0.0336 0.0000 -2.6242 -0.1668 2.8244 2.6576
13.0000 0.0394 0.0000 -3.2893 -0.2089 3.5375 3.3286
12.9000 0.0439 0.0000 -3.9388 -0.2531 4.2356 3.9826
12.8000 0.0422 0.0000 -4.6039 -0.2939 4.9399 4.6459
12.7000 0.0512 0.0000 -5.2561 -0.3373 5.6444 5.3071
12.6000 0.0646 0.0000 -5.9154 -0.3795 6.3594 5.9798
12.5000 0.0652 0.0000 -6.5667 -0.4211 7.0528 6.6317
12.4000 0.0755 0.0000 -7.2283 -0.4618 7.7656 7.3038
12.3000 0.0729 0.0000 -7.8790 -0.5016 8.4535 7.9519
12.2000 0.0741 0.0000 -8.5308 -0.5434 9.1484 8.6050
12.1000 0.0885 0.0000 -9.1881 -0.5843 9.8610 9.2767
12.0000 0.1018 0.0000 -9.8467 -0.6269 10.5755 9.9486
11.9000 0.1040 -0.0023 -10.5003 -0.6687 11.2754 10.6067
11.8000 0.1185 -0.0064 -11.1568 -0.7115 11.9934 11.2819
11.7000 0.1220 -0.0120 -11.8044 -0.7525 12.6911 11.9386
11.6000 0.1322 -0.0182 -12.4486 -0.7957 13.3947 12.5990
11.5000 0.1388 -0.0252 -13.0927 -0.8390 14.0958 13.2568
11.4000 0.1511 -0.0330 -13.7501 -0.8819 14.8161 13.9343
11.3000 0.1590 -0.0417 -14.4038 -0.9240 15.5287 14.6047
11.2000 0.1678 -0.0506 -15.0528 -0.9677 16.2389 15.2712
11.1000 0.1625 -0.0602 -15.6878 -1.0090 16.9196 15.9106
11.0000 0.1730 -0.0707 -16.3415 -1.0525 17.6378 16.5852
10.9000 0.1738 -0.0780 -16.9850 -1.0955 18.3323 17.2368
10.8000 0.1796 -0.0829 -17.6357 -1.1392 19.0375 17.8983
10.7000 0.1963 -0.0852 -18.2805 -1.1803 19.7422 18.5619
10.6000 0.2047 -0.0874 -18.9314 -1.2213 20.4448 19.2235
10.5000 0.2048 -0.0892 -19.5890 -1.2633 21.1462 19.8829
10.4000 0.2109 -0.0909 -20.2399 -1.3053 21.8470 20.5417
10.3000 0.2116 -0.0941 -20.8863 -1.3454 22.5372 21.1918
10.2000 0.2133 -0.0989 -21.5459 -1.3874 23.2453 21.8579
10.1000 0.2206 -0.1044 -22.1956 -1.4288 23.9491 22.5203
10.0000 0.2192 -0.1098 -22.8539 -1.4694 24.6521 23.1827
9.9000 0.2125 -0.1163 -23.5171 -1.5116 25.3575 23.8459
9.8000 0.2132 -0.1235 -24.1722 -1.5530 26.0616 24.5087
9.7000 0.2169 -0.1344 -24.8241 -1.5971 26.7725 25.1753
9.6000 0.2262 -0.1443 -25.4814 -1.6413 27.4932 25.8519
9.5000 0.2398 -0.1539 -26.1399 -1.6833 28.2169 26.5336
9.4000 0.2496 -0.1627 -26.7975 -1.7260 28.9358 27.2098
9.3000 0.2605 -0.1701 -27.4486 -1.7661 29.6453 27.8792
9.2000 0.2744 -0.1762 -28.0976 -1.8078 30.3559 28.5481
9.1000 0.2839 -0.1805 -28.7491 -1.8487 31.0621 29.2134
9.0000 0.3079 -0.1842 -29.4008 -1.8901 31.7829 29.8928
8.9000 0.3261 -0.1886 -30.0643 -1.9302 32.5091 30.5788
8.8000 0.3369 -0.1922 -30.7203 -1.9709 33.2202 31.2493
8.7000 0.3612 -0.1931 -31.3652 -2.0105 33.9299 31.9194
8.6000 0.3770 -0.1971 -32.0111 -2.0502 34.6352 32.5850
8.5000 0.3866 -0.2015 -32.6535 -2.0899 35.3313 33.2415
8.4000 0.4002 -0.2080 -33.2975 -2.1303 36.0358 33.9055
8.3000 0.4136 -0.2165 -33.9336 -2.1710 36.7345 34.5635
8.2000 0.4223 -0.2263 -34.5684 -2.2102 37.4270 35.2167
8.1000 0.4085 -0.2399 -35.1937 -2.2516 38.0933 35.8418
8.0000 0.3980 -0.2519 -35.8339 -2.2933 38.7768 36.4835
7.9000 0.3879 -0.2641 -36.4624 -2.3330 39.4471 37.1141
7.8000 0.3795 -0.2780 -37.0899 -2.3747 40.1219 37.7472
7.7000 0.3606 -0.2941 -37.7179 -2.4170 40.7893 38.3723
7.6000 0.3431 -0.3081 -38.3414 -2.4584 41.4508 38.9924
7.5000 0.3119 -0.3190 -38.9628 -2.4984 42.0918 39.5934
7.4000 0.2931 -0.3256 -39.5858 -2.5414 42.7459 40.2044
7.3000 0.2683 -0.3317 -40.2141 -2.5836 43.3976 40.8140
7.2000 0.2625 -0.3369 -40.8585 -2.6279 44.0857 41.4578
7.1000 0.2497 -0.3423 -41.5120 -2.6697 44.7736 42.1039
7.0000 0.2387 -0.3495 -42.1555 -2.7104 45.4540 42.7436
6.9000 0.2430 -0.3596 -42.8180 -2.7533 46.1738 43.4205
6.8000 0.2446 -0.3727 -43.4781 -2.7948 46.8902 44.0954
6.7000 0.2690 -0.3852 -44.1498 -2.8360 47.6402 44.8042
6.6000 0.3071 -0.4011 -44.8228 -2.8776 48.4087 45.5311
6.5000 0.3495 -0.4222 -45.5047 -2.9193 49.1958 46.2765
6.4000 0.3982 -0.4483 -46.1926 -2.9587 49.9980 47.0393
6.3000 0.4596 -0.4773 -46.8838 -2.9988 50.8195 47.8207
6.2000 0.5185 -0.5093 -47.5687 -3.0362 51.6327 48.5965
6.1000 0.5944 -0.5421 -48.2517 -3.0728 52.4611 49.3882
6.0000 0.6639 -0.5747 -48.9332 -3.1077 53.2796 50.1719
5.9000 0.7406 -0.6084 -49.6134 -3.1401 54.1026 50.9626
5.8000 0.8126 -0.6429 -50.2886 -3.1704 54.9145 51.7441
5.7000 0.8704 -0.6794 -50.9508 -3.2008 55.7016 52.5007
5.6000 0.9159 -0.7171 -51.6094 -3.2285 56.4710 53.2425
5.5000 0.9515 -0.7539 -52.2525 -3.2556 57.2138 53.9582
5.4000 0.9593 -0.7910 -52.8931 -3.2824 57.9261 54.6437
5.3000 0.9492 -0.8317 -53.5102 -3.3100 58.6012 55.2913
5.2000 0.9030 -0.8774 -54.1271 -3.3356 59.2432 55.9075
5.1000 0.8080 -0.9291 -54.7415 -3.3624 59.8409 56.4785
5.0000 0.6612 -0.9869 -55.3548 -3.3894 60.3923 57.0028
4.9000 0.4893 -1.0513 -55.9793 -3.4175 60.9373 57.5198
4.8000 0.2828 -1.1232 -56.6325 -3.4434 61.4817 58.0382
4.7000 0.0712 -1.2044 -57.3173 -3.4715 62.0642 58.5927
4.6000 -0.1004 -1.2949 -58.0421 -3.5013 62.7378 59.2365
4.5000 -0.2120 -1.3958 -58.7772 -3.5290 63.4898 59.9609
4.4000 -0.2355 -1.5069 -59.5069 -3.5546 64.3327 60.7781
4.3000 -0.1821 -1.6255 -60.1814 -3.5811 65.2058 61.6246
4.2000 -0.0748 -1.7530 -60.7592 -3.6070 66.0441 62.4371
4.1000 0.0484 -1.8899 -61.2334 -3.6326 66.8042 63.1715
4.0000 0.1799 -2.0367 -61.5974 -3.6580 67.4719 63.8139
3.9000 0.3311 -2.1951 -61.8633 -3.6811 68.0704 64.3893
3.8000 0.5019 -2.3672 -62.0510 -3.7027 68.6225 64.9198
3.7000 0.6938 -2.5544 -62.1629 -3.7216 69.1324 65.4108
3.6000 0.8935 -2.7575 -62.2106 -3.7370 69.5985 65.8615
3.5000 1.0979 -2.9800 -62.2051 -3.7467 70.0294 66.2827
3.4000 1.2933 -3.2244 -62.1469 -3.7513 70.4156 66.6643
3.3000 1.4811 -3.4953 -62.0583 -3.7516 70.7860 67.0344
3.2000 1.6582 -3.7955 -61.9339 -3.7443 71.1317 67.3875
3.1000 1.8030 -4.1285 -61.8006 -3.7287 71.4605 67.7318
3.0000 1.8982 -4.4979 -61.6690 -3.7043 71.7692 68.0650
2.9000 1.9380 -4.9078 -61.5363 -3.6705 72.0524 68.3819
2.8000 1.9105 -5.3623 -61.4175 -3.6295 72.3195 68.6900
2.7000 1.7889 -5.8656 -61.3230 -3.5769 72.5543 68.9773
2.6000 1.5787 -6.4217 -61.2509 -3.5145 72.7656 69.2511
2.5000 1.2657 -7.0332 -61.2004 -3.4421 72.9412 69.4991
2.4000 0.8679 -7.7004 -61.1790 -3.3613 73.1082 69.7469
2.3000 0.3669 -8.4190 -61.1821 -3.2730 73.2406 69.9676
2.2000 -0.2274 -9.1759 -61.2192 -3.1751 73.3424 70.1672
2.1000 -0.8695 -9.9420 -61.2831 -3.0677 73.4228 70.3551
2.0000 -1.4928 -10.6597 -61.3568 -2.9529 73.4761 70.5232
1.9000 -2.0178 -11.2187 -61.4605 -2.8281 73.4890 70.6609
1.8000 -2.2030 -11.4128 -61.5831 -2.6984 73.4909 70.7925
1.7000 -1.6707 -10.8540 -61.7182 -2.5597 73.4607 70.9010
1.6000 0.3361 -8.8005 -61.8653 -2.4167 73.4181 71.0014
1.5000 5.2661 -3.7907 -62.0176 -2.2681 73.3421 71.0740
1.4000 16.1557 7.1934 -62.1764 -2.1131 73.2517 71.1385
1.3000 39.6393 30.8037 -62.3302 -1.9509 73.1164 71.1655
