# 0-dist(Ang),1-dGtot,2-dGvac,3-dGele,4-dGdis,5-dGcav,6-dGvdw(kT)
13.5000 0.0000 0.0000 0.0000 0.0000 0.0000 0.0000
13.4000 -0.0091 0.0000 -0.8688 -0.0290 0.8888 0.8598
13.3000 0.0006 0.0000 -1.7364 -0.0590 1.7959 1.7370
13.2000 -0.0058 0.0000 -2.6003 -0.0900 2.6845 2.5945
13.1000 0.0077 0.0000 -3.4682 -0.1200 3.5960 3.4760
13.0000 0.0204 0.0000 -4.3338 -0.1488 4.5030 4.3542
12.9000 0.0422 0.0000 -5.2121 -0.1792 5.4335 5.2543
12.8000 0.0625 0.0000 -6.0813 -0.2096 6.3534 6.1438
12.7000 0.0813 0.0000 -6.9485 -0.2405 7.2704 7.0298
12.6000 0.1016 0.0000 -7.8032 -0.2708 8.1756 7.9048
12.5000 0.1092 0.0000 -8.6567 -0.3000 9.0660 8.7660
12.4000 0.1265 0.0000 -9.5304 -0.3309 9.9879 9.6570
12.3000 0.1379 0.0000 -10.3875 -0.3610 10.8865 10.5254
12.2000 0.1473 0.0000 -11.2501 -0.3902 11.7877 11.3975
12.1000 0.1530 0.0000 -12.1062 -0.4198 12.6791 12.2593
12.0000 0.1596 0.0000 -12.9716 -0.4488 13.5802 13.1313
11.9000 0.1655 -0.0026 -13.8342 -0.4796 14.4820 14.0024
11.8000 0.1590 -0.0074 -14.6969 -0.5097 15.3730 14.8633
11.7000 0.1564 -0.0143 -15.5623 -0.5396 16.2727 15.7330
11.6000 0.1565 -0.0234 -16.4249 -0.5705 17.1754 16.6049
11.5000 0.1481 -0.0348 -17.2918 -0.6005 18.0752 17.4747
11.4000 0.1426 -0.0483 -18.1612 -0.6309 18.9831 18.3522
11.3000 0.1342 -0.0648 -19.0278 -0.6615 19.8883 19.2268
11.2000 0.1297 -0.0841 -19.8934 -0.6908 20.7980 20.1073
11.1000 0.1246 -0.1056 -20.7559 -0.7214 21.7076 20.9862
11.0000 0.1215 -0.1284 -21.6113 -0.7513 22.6126 21.8614
10.9000 0.1181 -0.1493 -22.4779 -0.7813 23.5267 22.7454
10.8000 0.1168 -0.1680 -23.3364 -0.8108 24.4320 23.6213
10.7000 0.1289 -0.1837 -24.1990 -0.8405 25.3522 24.5117
10.6000 0.1480 -0.1952 -25.0615 -0.8699 26.2747 25.4049
10.5000 0.1758 -0.2025 -25.9272 -0.8995 27.2051 26.3056
10.4000 0.1987 -0.2055 -26.7897 -0.9281 28.1220 27.1940
10.3000 0.2242 -0.2044 -27.6428 -0.9569 29.0284 28.0715
10.2000 0.2531 -0.2015 -28.5029 -0.9866 29.9441 28.9575
10.1000 0.2783 -0.2007 -29.3540 -1.0152 30.8482 29.8330
10.0000 0.2916 -0.2027 -30.2062 -1.0452 31.7459 30.7007
9.9000 0.3100 -0.2079 -31.0618 -1.0744 32.6541 31.5797
9.8000 0.3251 -0.2196 -31.9165 -1.1037 33.5650 32.4613
9.7000 0.3249 -0.2377 -32.7561 -1.1326 34.4514 33.3188
9.6000 0.3287 -0.2625 -33.6046 -1.1618 35.3576 34.1958
9.5000 0.3204 -0.2935 -34.4608 -1.1921 36.2668 35.0748
9.4000 0.3097 -0.3305 -35.3319 -1.2223 37.1944 35.9721
9.3000 0.2917 -0.3720 -36.1904 -1.2505 38.1045 36.8541
9.2000 0.2856 -0.4140 -37.0464 -1.2806 39.0266 37.7459
9.1000 0.2783 -0.4580 -37.9013 -1.3100 39.9475 38.6375
9.0000 0.2775 -0.5038 -38.7472 -1.3392 40.8676 39.5284
8.9000 0.2611 -0.5471 -39.5820 -1.3685 41.7586 40.3901
8.8000 0.2605 -0.5866 -40.4366 -1.3987 42.6822 41.2836
8.7000 0.2654 -0.6206 -41.2732 -1.4288 43.5879 42.1591
8.6000 0.2775 -0.6507 -42.1238 -1.4582 44.5102 43.0521
8.5000 0.2981 -0.6763 -42.9798 -1.4879 45.4421 43.9542
8.4000 0.3113 -0.6985 -43.8106 -1.5178 46.3381 44.8203
8.3000 0.3336 -0.7178 -44.6484 -1.5473 47.2471 45.6998
8.2000 0.3609 -0.7345 -45.4699 -1.5765 48.1418 46.5653
8.1000 0.3768 -0.7505 -46.2995 -1.6059 49.0325 47.4266
8.0000 0.3823 -0.7687 -47.1197 -1.6349 49.9056 48.2706
7.9000 0.3955 -0.7901 -47.9459 -1.6648 50.7963 49.1315
7.8000 0.3921 -0.8144 -48.7893 -1.6936 51.6894 49.9958
7.7000 0.3788 -0.8429 -49.6414 -1.7226 52.5856 50.8630
7.6000 0.3620 -0.8751 -50.4878 -1.7516 53.4764 51.7248
7.5000 0.3505 -0.9113 -51.3421 -1.7806 54.3843 52.6037
7.4000 0.3319 -0.9502 -52.1919 -1.8090 55.2829 53.4739
7.3000 0.3071 -0.9935 -53.0616 -1.8366 56.1987 54.3621
7.2000 0.3010 -1.0378 -53.9307 -1.8645 57.1337 55.2693
7.1000 0.3013 -1.0833 -54.8317 -1.8916 58.1078 56.2161
7.0000 0.3089 -1.1299 -55.7389 -1.9176 59.0951 57.1775
6.9000 0.3266 -1.1780 -56.6310 -1.9448 60.0803 58.1354
6.8000 0.3495 -1.2261 -57.5153 -1.9708 61.0616 59.0908
6.7000 0.3814 -1.2741 -58.3800 -1.9963 62.0316 60.0353
6.6000 0.4267 -1.3228 -59.2413 -2.0235 63.0142 60.9907
6.5000 0.4618 -1.3721 -60.0938 -2.0498 63.9774 61.9276
6.4000 0.5176 -1.4231 -60.9251 -2.0768 64.9426 62.8658
6.3000 0.5658 -1.4756 -61.7297 -2.1042 65.8754 63.7712
6.2000 0.6060 -1.5302 -62.5126 -2.1314 66.7801 64.6487
6.1000 0.6457 -1.5869 -63.2515 -2.1579 67.6419 65.4841
6.0000 0.6783 -1.6464 -63.9864 -2.1852 68.4962 66.3110
5.9000 0.7048 -1.7105 -64.6856 -2.2124 69.3132 67.1008
5.8000 0.7214 -1.7782 -65.3673 -2.2394 70.1061 67.8668
5.7000 0.7233 -1.8493 -66.0251 -2.2664 70.8639 68.5975
5.6000 0.6952 -1.9242 -66.6859 -2.2928 71.5979 69.3051
5.5000 0.6281 -2.0024 -67.3313 -2.3170 72.2785 69.9615
5.4000 0.5291 -2.0835 -67.9590 -2.3398 72.9112 70.5714
5.3000 0.3889 -2.1686 -68.6253 -2.3636 73.5462 71.1826
5.2000 0.2111 -2.2588 -69.3151 -2.3874 74.1720 71.7847
5.1000 0.0009 -2.3543 -70.0252 -2.4100 74.7903 72.3802
5.0000 -0.2050 -2.4557 -70.7786 -2.4332 75.4622 73.0289
4.9000 -0.4080 -2.5641 -71.5844 -2.4557 76.1959 73.7402
4.8000 -0.5468 -2.6800 -72.4593 -2.4765 77.0686 74.5921
4.7000 -0.5980 -2.8040 -73.4055 -2.4952 78.1063 75.6111
4.6000 -0.5307 -2.9372 -74.4160 -2.5105 79.3326 76.8222
4.5000 -0.3371 -3.0806 -75.4626 -2.5228 80.7287 78.2059
4.4000 -0.0378 -3.2350 -76.5368 -2.5321 82.2659 79.7338
4.3000 0.3055 -3.4014 -77.5939 -2.5408 83.8414 81.3007
4.2000 0.6447 -3.5811 -78.6322 -2.5452 85.4029 82.8577
4.1000 0.9766 -3.7751 -79.6138 -2.5467 86.9120 84.3653
4.0000 1.2978 -3.9852 -80.5368 -2.5452 88.3650 85.8198
3.9000 1.6139 -4.2128 -81.3978 -2.5395 89.7640 87.2245
3.8000 1.9052 -4.4601 -82.1611 -2.5283 91.0547 88.5264
3.7000 2.1593 -4.7289 -82.8261 -2.5128 92.2272 89.7144
3.6000 2.3883 -5.0218 -83.3710 -2.4918 93.2728 90.7810
3.5000 2.5599 -5.3412 -83.8122 -2.4658 94.1789 91.7131
3.4000 2.6534 -5.6902 -84.1283 -2.4317 94.9035 92.4718
3.3000 2.6632 -6.0718 -84.3301 -2.3916 95.4568 93.0651
3.2000 2.5831 -6.4897 -84.4395 -2.3437 95.8560 93.5123
3.1000 2.4271 -6.9475 -84.4473 -2.2920 96.1138 93.8218
3.0000 2.1884 -7.4490 -84.3770 -2.2336 96.2482 94.0145
2.9000 1.8729 -7.9981 -84.2399 -2.1697 96.2807 94.1110
2.8000 1.4808 -8.5982 -84.0126 -2.1000 96.1917 94.0916
2.7000 1.0090 -9.2516 -83.7509 -2.0259 96.0374 94.0115
2.6000 0.4570 -9.9587 -83.4226 -1.9453 95.7836 93.8383
2.5000 -0.1601 -10.7158 -83.0400 -1.8622 95.4579 93.5957
2.4000 -0.8432 -11.5127 -82.6331 -1.7733 95.0761 93.3027
2.3000 -1.5566 -12.3269 -82.1524 -1.6789 94.6018 92.9228
2.2000 -2.2547 -13.1149 -81.6578 -1.5792 94.0974 92.5182
2.1000 -2.8552 -13.7966 -81.1434 -1.4756 93.5605 92.0849
2.0000 -3.2159 -14.2269 -80.5928 -1.3692 92.9732 91.6040
1.9000 -3.0838 -14.1444 -80.0400 -1.2580 92.3588 91.1008
1.8000 -1.9670 -13.0730 -79.4762 -1.1436 91.7261 90.5825
1.7000 1.0015 -10.1282 -78.9052 -1.0249 91.0601 90.0352
1.6000 7.5238 -3.6146 -78.3348 -0.9024 90.3760 89.4735
1.5000 20.9960 9.8653 -77.7735 -0.7757 89.6803 88.9046
1.4000 48.6425 37.5377 -77.2214 -0.6461 88.9727 88.3266
1.3000 107.0555 96.0144 -76.6883 -0.5108 88.2406 87.7299
