# 0-dist(Ang),1-dGtot,2-dGvac,3-dGele,4-dGdis,5-dGcav,6-dGvdw(kT)
13.5000 0.0000 0.0000 0.0000 0.0000 0.0000 0.0000
13.4000 -0.0167 0.0004 1.4199 0.0722 -1.5093 -1.4371
13.3000 -0.0085 0.0010 2.8256 0.1433 -2.9785 -2.8352
13.2000 -0.0066 0.0017 4.2383 0.2135 -4.4602 -4.2466
13.1000 -0.0045 0.0026 5.6567 0.2870 -5.9507 -5.6637
13.0000 -0.0096 0.0036 7.0787 0.3584 -7.4502 -7.0918
12.9000 -0.0143 0.0047 8.5036 0.4302 -8.9528 -8.5226
12.8000 -0.0185 0.0055 9.9210 0.5026 -10.4476 -9.9450
12.7000 -0.0291 0.0059 11.3326 0.5738 -11.9414 -11.3676
12.6000 -0.0388 0.0061 12.7514 0.6449 -13.4413 -12.7963
12.5000 -0.0517 0.0050 14.1629 0.7167 -14.9366 -14.2199
12.4000 -0.0818 0.0026 15.5609 0.7900 -16.4356 -15.6455
12.3000 -0.0950 -0.0011 16.9732 0.8648 -17.9322 -17.0674
12.2000 -0.1204 -0.0059 18.3829 0.9380 -19.4357 -18.4977
12.1000 -0.1433 -0.0113 19.7723 1.0110 -20.9161 -19.9050
12.0000 -0.1654 -0.0170 21.1840 1.0815 -22.4145 -21.3330
11.9000 -0.1948 -0.0264 22.5994 1.1525 -23.9208 -22.7683
11.8000 -0.2232 -0.0342 24.0062 1.2259 -25.4215 -24.1957
11.7000 -0.2459 -0.0406 25.4130 1.3023 -26.9211 -25.6188
11.6000 -0.2640 -0.0468 26.8124 1.3767 -28.4068 -27.0301
11.5000 -0.2835 -0.0513 28.2341 1.4490 -29.9158 -28.4667
11.4000 -0.3005 -0.0553 29.6512 1.5211 -31.4177 -29.8966
11.3000 -0.3090 -0.0575 31.0624 1.5952 -32.9094 -31.3142
11.2000 -0.3196 -0.0600 32.4890 1.6700 -34.4186 -32.7487
11.1000 -0.3317 -0.0623 33.9017 1.7426 -35.9138 -34.1712
11.0000 -0.3439 -0.0666 35.3107 1.8163 -37.4043 -35.5880
10.9000 -0.3684 -0.0721 36.7266 1.8884 -38.9113 -37.0229
10.8000 -0.3851 -0.0777 38.1554 1.9644 -40.4272 -38.4628
10.7000 -0.4084 -0.0827 39.5816 2.0372 -41.9445 -39.9073
10.6000 -0.4217 -0.0896 41.0018 2.1077 -43.4416 -41.3340
10.5000 -0.4388 -0.0982 42.4242 2.1791 -44.9440 -42.7649
10.4000 -0.4651 -0.1078 43.8417 2.2496 -46.4488 -44.1991
10.3000 -0.4848 -0.1176 45.2725 2.3199 -47.9597 -45.6398
10.2000 -0.4985 -0.1274 46.6955 2.3920 -49.4589 -47.0669
10.1000 -0.5110 -0.1395 48.1175 2.4631 -50.9524 -48.4892
10.0000 -0.5215 -0.1510 49.5404 2.5333 -52.4448 -49.9114
9.9000 -0.5247 -0.1596 50.9580 2.6031 -53.9268 -51.3237
9.8000 -0.5275 -0.1677 52.3834 2.6732 -55.4170 -52.7438
9.7000 -0.5079 -0.1741 53.8114 2.7408 -56.8864 -54.1456
9.6000 -0.4901 -0.1777 55.2304 2.8116 -58.3549 -55.5433
9.5000 -0.4648 -0.1858 56.6642 2.8827 -59.8263 -56.9436
9.4000 -0.4327 -0.1971 58.1071 2.9537 -61.2969 -58.3432
9.3000 -0.3881 -0.2118 59.5270 3.0259 -62.7297 -59.7038
9.2000 -0.3470 -0.2309 60.9468 3.1034 -64.1667 -61.0633
9.1000 -0.3135 -0.2565 62.3688 3.1833 -65.6095 -62.4262
9.0000 -0.2863 -0.2852 63.7997 3.2653 -67.0666 -63.8014
8.9000 -0.2573 -0.3156 65.2283 3.3476 -68.5182 -65.1705
8.8000 -0.2324 -0.3469 66.6661 3.4316 -69.9837 -66.5521
8.7000 -0.2259 -0.3787 68.0691 3.5191 -71.4359 -67.9168
8.6000 -0.2489 -0.4071 69.4835 3.6107 -72.9364 -69.3257
8.5000 -0.2837 -0.4363 70.9105 3.7042 -74.4625 -70.7583
8.4000 -0.3294 -0.4697 72.3280 3.7982 -75.9863 -72.1881
8.3000 -0.3982 -0.5064 73.7562 3.8914 -77.5397 -73.6483
8.2000 -0.4804 -0.5419 75.1820 3.9855 -79.1064 -75.1209
8.1000 -0.5677 -0.5761 76.5965 4.0797 -80.6682 -76.5885
8.0000 -0.6573 -0.6082 78.0174 4.1698 -82.2368 -78.0670
7.9000 -0.7703 -0.6392 79.4221 4.2603 -83.8140 -79.5536
7.8000 -0.8903 -0.6710 80.8384 4.3473 -85.4055 -81.0581
7.7000 -1.0092 -0.7027 82.2517 4.4310 -86.9899 -82.5589
7.6000 -1.1248 -0.7351 83.6757 4.5127 -88.5787 -84.0660
7.5000 -1.2467 -0.7677 85.1027 4.5927 -90.1751 -85.5824
7.4000 -1.3679 -0.8024 86.5360 4.6695 -91.7717 -87.1022
7.3000 -1.4939 -0.8395 87.9610 4.7428 -93.3590 -88.6162
7.2000 -1.6010 -0.8796 89.3878 4.8162 -94.9262 -90.1100
7.1000 -1.6935 -0.9226 90.8327 4.8873 -96.4917 -91.6045
7.0000 -1.7689 -0.9690 92.2630 4.9601 -98.0237 -93.0636
6.9000 -1.8342 -1.0196 93.7079 5.0334 -99.5568 -94.5233
6.8000 -1.8424 -1.0747 95.1575 5.1103 -101.0364 -95.9261
6.7000 -1.7936 -1.1344 96.5966 5.1870 -102.4437 -97.2567
6.6000 -1.6756 -1.1991 98.0311 5.2676 -103.7761 -98.5085
6.5000 -1.4815 -1.2692 99.4712 5.3466 -105.0313 -99.6846
6.4000 -1.2054 -1.3453 100.9128 5.4338 -106.2076 -100.7738
6.3000 -0.8458 -1.4274 102.3483 5.5239 -107.2913 -101.7675
6.2000 -0.4122 -1.5164 103.7984 5.6246 -108.3196 -102.6950
6.1000 0.0564 -1.6130 105.2376 5.7377 -109.3068 -103.5692
6.0000 0.4841 -1.7178 106.6911 5.8701 -110.3602 -104.4901
5.9000 0.7741 -1.8317 108.1244 6.0315 -111.5509 -105.5194
5.8000 0.9168 -1.9557 109.5608 6.2178 -112.9068 -106.6890
5.7000 0.9564 -2.0908 110.9963 6.4237 -114.3736 -107.9499
5.6000 0.9150 -2.2381 112.4182 6.6459 -115.9118 -109.2659
5.5000 0.8389 -2.3988 113.8399 6.8795 -117.4824 -110.6029
5.4000 0.7345 -2.5743 115.2562 7.1256 -119.0737 -111.9481
5.3000 0.5918 -2.7661 116.6769 7.3800 -120.6997 -113.3197
5.2000 0.4198 -2.9758 118.0899 7.6488 -122.3442 -114.6954
5.1000 0.2134 -3.2051 119.5202 7.9278 -124.0304 -116.1027
5.0000 -0.0366 -3.4557 120.9375 8.2205 -125.7399 -117.5194
4.9000 -0.2994 -3.7294 122.3666 8.5206 -127.4583 -118.9376
4.8000 -0.6101 -4.0279 123.8042 8.8300 -129.2174 -120.3874
4.7000 -0.9646 -4.3528 125.2420 9.1497 -131.0043 -121.8546
4.6000 -1.3474 -4.7050 126.6724 9.4783 -132.7941 -123.3158
4.5000 -1.7857 -5.0848 128.1054 9.8153 -134.6226 -124.8073
4.4000 -2.2676 -5.4911 129.5476 10.1599 -136.4850 -126.3252
4.3000 -2.7833 -5.9207 130.9697 10.5098 -138.3432 -127.8334
4.2000 -3.3348 -6.3666 132.4084 10.8665 -140.2443 -129.3777
4.1000 -3.9079 -6.8164 133.8459 11.2283 -142.1668 -130.9385
4.0000 -4.4828 -7.2487 135.2857 11.5978 -144.1190 -132.5212
3.9000 -5.0268 -7.6276 136.7022 11.9714 -146.0741 -134.1027
3.8000 -5.4955 -7.8946 138.1228 12.3494 -148.0743 -135.7249
3.7000 -5.7527 -7.9544 139.5457 12.7300 -150.0753 -137.3453
3.6000 -5.6732 -7.6514 140.9601 13.1107 -152.0939 -138.9833
3.5000 -4.9727 -6.7305 142.3734 13.4933 -154.1101 -140.6168
3.4000 -3.2408 -4.7685 143.7710 13.8776 -156.1224 -142.2448
3.3000 0.2160 -1.0532 145.1646 14.2634 -158.1600 -143.8965
3.2000 6.6320 5.6345 146.5508 14.6490 -160.2036 -145.5546
3.1000 18.1500 17.4277 147.9520 15.0341 -162.2650 -147.2310
3.0000 38.5818 38.1471 149.3245 15.4165 -164.3076 -148.8911
2.9000 74.9470 74.8238 150.7081 15.8001 -166.3864 -150.5863
2.8000 140.5878 140.7820 152.0611 16.1803 -168.4370 -152.2567
2.7000 261.5661 262.0892 153.4282 16.5576 -170.5105 -153.9529
2.6000 490.6540 491.5072 154.7905 16.9330 -172.5781 -155.6451
2.5000 938.5618 939.7477 156.1305 17.3044 -174.6219 -157.3175
2.4000 1846.4412 1847.9686 157.4635 17.6706 -176.6624 -158.9919
2.3000 3760.3573 3762.2271 158.8064 18.0324 -178.7090 -160.6766
2.2000 7965.9264 7968.1441 160.1500 18.3881 -180.7572 -162.3691
2.1000 17608.5245 17611.0988 161.4906 18.7358 -182.7979 -164.0621
2.0000 40665.7145 40668.6540 162.8374 19.0772 -184.8464 -165.7692
1.9000 98002.5299 98005.8375 164.1909 19.4119 -186.8950 -167.4831
1.8000 245332.7170 245336.4084 165.5634 19.7370 -188.9597 -169.2227
1.7000 631813.1073 631817.1445 166.9487 20.0504 -191.0203 -170.9699
1.6000 1645366.2006 1645370.6944 168.3339 20.3526 -193.0692 -172.7166
1.5000 4212870.5625 4212875.3189 169.7393 20.6420 -195.1329 -174.4909
1.4000 10167422.7435 10167428.0174 171.1693 20.9210 -197.2241 -176.3031
1.3000 21845613.4845 21845619.2210 172.6297 21.1858 -199.3398 -178.1540
