# 0-dist(Ang),1-dGtot,2-dGvac,3-dGele,4-dGdis,5-dGcav,6-dGvdw(kT)
13.5000 0.0000 0.0000 0.0000 0.0000 0.0000 0.0000
13.4100 -0.0032 0.0000 -0.8979 -0.0296 0.9243 0.8947
13.3100 -0.0030 0.0000 -1.7960 -0.0583 1.8514 1.7931
13.2100 0.0002 0.0000 -2.6921 -0.0887 2.7809 2.6923
13.1100 -0.0003 0.0000 -3.5683 -0.1180 3.6860 3.5680
13.0100 0.0090 0.0000 -4.4501 -0.1482 4.6072 4.4590
12.9100 0.0125 0.0000 -5.3273 -0.1790 5.5189 5.3399
12.8100 0.0224 0.0000 -6.2081 -0.2091 6.4397 6.2306
12.7100 0.0390 0.0000 -7.0844 -0.2381 7.3615 7.1234
12.6100 0.0569 0.0000 -7.9610 -0.2689 8.2869 8.0180
12.5100 0.0715 0.0000 -8.8428 -0.2987 9.2132 8.9144
12.4100 0.0771 0.0000 -9.7199 -0.3280 10.1252 9.7971
12.3100 0.0816 0.0000 -10.5809 -0.3578 11.0204 10.6627
12.2100 0.0857 0.0000 -11.4403 -0.3872 11.9133 11.5261
12.1100 0.0977 0.0000 -12.3068 -0.4182 12.8229 12.4047
12.0100 0.1095 0.0000 -13.1670 -0.4481 13.7248 13.2767
11.9100 0.1138 -0.0024 -14.0253 -0.4775 14.6193 14.1417
11.8100 0.1245 -0.0073 -14.9074 -0.5076 15.5470 15.0394
11.7100 0.1224 -0.0144 -15.7711 -0.5367 16.4448 15.9081
11.6100 0.1359 -0.0239 -16.6406 -0.5669 17.3675 16.8006
11.5100 0.1341 -0.0357 -17.5211 -0.5979 18.2890 17.6911
11.4100 0.1273 -0.0499 -18.3861 -0.6288 19.1924 18.5636
11.3100 0.1243 -0.0661 -19.2620 -0.6585 20.1112 19.4527
11.2100 0.1330 -0.0840 -20.1402 -0.6893 21.0469 20.3576
11.1100 0.1219 -0.1032 -21.0114 -0.7192 21.9560 21.2367
11.0100 0.1250 -0.1224 -21.8753 -0.7497 22.8726 22.1229
10.9100 0.1287 -0.1416 -22.7330 -0.7790 23.7825 23.0035
10.8100 0.1396 -0.1581 -23.5890 -0.8085 24.6954 23.8869
10.7100 0.1502 -0.1729 -24.4653 -0.8380 25.6267 24.7886
10.6100 0.1713 -0.1867 -25.3281 -0.8686 26.5551 25.6864
10.5100 0.1848 -0.2029 -26.1913 -0.8997 27.4789 26.5792
10.4100 0.1964 -0.2233 -27.0403 -0.9290 28.3892 27.4602
10.3100 0.2023 -0.2490 -27.8993 -0.9587 29.3094 28.3508
10.2100 0.2011 -0.2801 -28.7256 -0.9882 30.1952 29.2070
10.1100 0.1912 -0.3172 -29.5617 -1.0183 31.0884 30.0702
10.0100 0.1905 -0.3614 -30.3940 -1.0496 31.9955 30.9459
9.9100 0.1791 -0.4114 -31.2349 -1.0795 32.9048 31.8253
9.8100 0.1619 -0.4677 -32.0630 -1.1092 33.8018 32.6925
9.7100 0.1489 -0.5298 -32.8949 -1.1399 34.7134 33.5735
9.6100 0.1337 -0.5965 -33.7353 -1.1701 35.6356 34.4655
9.5100 0.1147 -0.6658 -34.5524 -1.2007 36.5336 35.3329
9.4100 0.1025 -0.7386 -35.3657 -1.2310 37.4378 36.2068
9.3100 0.1023 -0.8139 -36.1785 -1.2613 38.3561 37.0948
9.2100 0.1053 -0.8922 -36.9949 -1.2923 39.2847 37.9925
9.1100 0.1118 -0.9736 -37.7950 -1.3216 40.2020 38.8804
9.0100 0.1262 -1.0579 -38.5944 -1.3516 41.1301 39.7785
8.9100 0.1347 -1.1441 -39.3856 -1.3820 42.0465 40.6645
8.8100 0.1502 -1.2327 -40.1920 -1.4109 42.9858 41.5750
8.7100 0.1629 -1.3200 -40.9841 -1.4405 43.9076 42.4671
8.6100 0.1922 -1.4073 -41.7777 -1.4701 44.8474 43.3772
8.5100 0.2214 -1.4952 -42.5558 -1.5004 45.7729 44.2725
8.4100 0.2544 -1.5884 -43.3350 -1.5300 46.7079 45.1779
8.3100 0.2904 -1.6869 -44.1039 -1.5604 47.6416 46.0812
8.2100 0.3243 -1.7906 -44.8739 -1.5905 48.5793 46.9888
8.1100 0.3486 -1.9016 -45.6349 -1.6209 49.5060 47.8851
8.0100 0.3636 -2.0198 -46.3887 -1.6523 50.4243 48.7720
7.9100 0.3644 -2.1453 -47.1220 -1.6835 51.3153 49.6317
7.8100 0.3582 -2.2789 -47.8550 -1.7148 52.2068 50.4920
7.7100 0.3336 -2.4207 -48.5881 -1.7456 53.0880 51.3424
7.6100 0.2943 -2.5685 -49.3051 -1.7767 53.9446 52.1679
7.5100 0.2412 -2.7208 -50.0128 -1.8080 54.7827 52.9747
7.4100 0.1815 -2.8781 -50.7240 -1.8387 55.6222 53.7835
7.3100 0.1180 -3.0405 -51.4424 -1.8697 56.4706 54.6009
7.2100 0.0565 -3.2082 -52.1566 -1.9009 57.3221 55.4212
7.1100 0.0041 -3.3812 -52.8794 -1.9321 58.1967 56.2645
7.0100 -0.0355 -3.5606 -53.6124 -1.9626 59.1000 57.1374
6.9100 -0.0631 -3.7467 -54.3617 -1.9922 60.0374 58.0452
6.8100 -0.0747 -3.9400 -55.1162 -2.0227 61.0040 58.9813
6.7100 -0.0629 -4.1400 -55.8742 -2.0527 62.0038 59.9511
6.6100 -0.0383 -4.3471 -56.6352 -2.0837 63.0275 60.9437
6.5100 0.0060 -4.5606 -57.4042 -2.1127 64.0832 61.9705
6.4100 0.0563 -4.7809 -58.1442 -2.1412 65.1224 62.9812
6.3100 0.1314 -5.0071 -58.8710 -2.1726 66.1820 64.0094
6.2100 0.2216 -5.2404 -59.5900 -2.2026 67.2545 65.0519
6.1100 0.3143 -5.4809 -60.2960 -2.2340 68.3251 66.0911
6.0100 0.4193 -5.7304 -60.9683 -2.2649 69.3830 67.1180
5.9100 0.5288 -5.9889 -61.6119 -2.2973 70.4269 68.1296
5.8100 0.6381 -6.2576 -62.2263 -2.3301 71.4522 69.1221
5.7100 0.7451 -6.5387 -62.7841 -2.3641 72.4320 70.0679
5.6100 0.8373 -6.8315 -63.2704 -2.3977 73.3368 70.9391
5.5100 0.9038 -7.1375 -63.7078 -2.4316 74.1805 71.7489
5.4100 0.9368 -7.4562 -64.0792 -2.4647 74.9368 72.4721
5.3100 0.9158 -7.7886 -64.3842 -2.4952 75.5837 73.0885
5.2100 0.8372 -8.1359 -64.6379 -2.5240 76.1347 73.6108
5.1100 0.6706 -8.4997 -64.8406 -2.5521 76.5628 74.0107
5.0100 0.4115 -8.8807 -65.0189 -2.5811 76.8920 74.3109
4.9100 0.0833 -9.2794 -65.2296 -2.6116 77.2037 74.5921
4.8100 -0.2874 -9.6969 -65.4741 -2.6442 77.5276 74.8834
4.7100 -0.6576 -10.1337 -65.8013 -2.6757 77.9529 75.2772
4.6100 -0.9593 -10.5925 -66.2150 -2.7053 78.5533 75.8480
4.5100 -1.1421 -11.0747 -66.7119 -2.7323 79.3765 76.6441
4.4100 -1.1811 -11.5819 -67.2844 -2.7576 80.4426 77.6850
4.3100 -1.0720 -12.1158 -67.8920 -2.7803 81.7158 78.9355
4.2100 -0.8591 -12.6784 -68.5188 -2.8010 83.1388 80.3378
4.1100 -0.6121 -13.2717 -69.1357 -2.8206 84.6156 81.7950
4.0100 -0.3354 -13.8971 -69.7585 -2.8390 86.1590 83.3201
3.9100 -0.0206 -14.5583 -70.4096 -2.8557 87.8028 84.9472
3.8100 0.3781 -15.2592 -71.0813 -2.8715 89.5899 86.7184
3.7100 0.8811 -16.0030 -71.7666 -2.8854 91.5359 88.6506
3.6100 1.4722 -16.7937 -72.4260 -2.8946 93.5864 90.6918
3.5100 2.1129 -17.6358 -73.0257 -2.9012 95.6755 92.7743
3.4100 2.7582 -18.5345 -73.5364 -2.9037 97.7327 94.8290
3.3100 3.3524 -19.4952 -73.9283 -2.9019 99.6777 96.7758
3.2100 3.8578 -20.5228 -74.1523 -2.8953 101.4281 98.5328
3.1100 4.2300 -21.6248 -74.2281 -2.8840 102.9668 100.0828
3.0100 4.4562 -22.8085 -74.1207 -2.8687 104.2539 101.3852
2.9100 4.5003 -24.0812 -73.8384 -2.8481 105.2681 102.4200
2.8100 4.3542 -25.4501 -73.4241 -2.8236 106.0523 103.2287
2.7100 4.0178 -26.9230 -72.8674 -2.7944 106.6027 103.8083
2.6100 3.4753 -28.5064 -72.1732 -2.7601 106.9152 104.1551
2.5100 2.7417 -30.2049 -71.3689 -2.7208 107.0366 104.3158
2.4100 1.8218 -32.0188 -70.4654 -2.6773 106.9836 104.3063
2.3100 0.7447 -33.9406 -69.4952 -2.6306 106.8115 104.1809
2.2100 -0.4835 -35.9474 -68.4767 -2.5809 106.5217 103.9408
2.1100 -1.7908 -37.9897 -67.4021 -2.5262 106.1274 103.6013
2.0100 -3.0832 -39.9689 -66.3030 -2.4699 105.6588 103.1889
1.9100 -4.1647 -41.6974 -65.1894 -2.4102 105.1325 102.7223
1.8100 -4.6845 -42.8207 -64.0807 -2.3472 104.5643 102.2171
1.7100 -3.9702 -42.6622 -62.9641 -2.2830 103.9392 101.6562
1.6100 -0.6882 -39.8980 -61.8675 -2.2172 103.2944 101.0772
1.5100 7.8636 -31.8246 -60.7936 -2.1497 102.6316 100.4819
1.4100 27.5399 -12.5915 -59.7418 -2.0812 101.9544 99.8733
1.3100 72.0147 31.4794 -58.7050 -2.0121 101.2524 99.2403
