# 0-dist(Ang),1-dGtot,2-dGvac,3-dGele,4-dGdis,5-dGcav,6-dGvdw(kT)
13.5000 0.0000 0.0000 0.0000 0.0000 0.0000 0.0000
13.4000 -0.0078 -0.0512 -1.6519 -0.0141 1.7094 1.6953
13.3000 -0.0343 -0.1083 -3.2868 -0.0284 3.3892 3.3608
13.2000 -0.0631 -0.1681 -4.9707 -0.0430 5.1187 5.0757
13.1000 -0.0724 -0.2158 -6.6303 -0.0570 6.8308 6.7737
13.0000 -0.0724 -0.2524 -8.3022 -0.0695 8.5516 8.4821
12.9000 -0.0499 -0.2702 -9.9897 -0.0810 10.2911 10.2101
12.8000 0.0110 -0.2658 -11.6360 -0.0959 12.0088 11.9129
12.7000 0.0646 -0.2408 -13.2871 -0.1101 13.7027 13.5926
12.6000 0.1439 -0.1968 -14.9816 -0.1236 15.4459 15.3223
12.5000 0.2193 -0.1532 -16.6232 -0.1380 17.1336 16.9956
12.4000 0.2793 -0.1167 -18.2831 -0.1508 18.8298 18.6790
12.3000 0.3236 -0.0844 -19.9138 -0.1642 20.4859 20.3217
12.2000 0.3532 -0.0567 -21.5711 -0.1782 22.1591 21.9809
12.1000 0.3714 -0.0427 -23.2478 -0.1901 23.8519 23.6618
12.0000 0.3702 -0.0404 -24.9186 -0.2040 25.5331 25.3292
11.9000 0.3545 -0.0451 -26.5656 -0.2191 27.1843 26.9652
11.8000 0.3460 -0.0528 -28.1893 -0.2334 28.8215 28.5881
11.7000 0.3411 -0.0620 -29.8221 -0.2486 30.4739 30.2253
11.6000 0.3299 -0.0735 -31.4851 -0.2643 32.1529 31.8886
11.5000 0.3147 -0.0868 -33.0981 -0.2806 33.7802 33.4996
11.4000 0.2940 -0.1018 -34.7633 -0.2945 35.4536 35.1591
11.3000 0.2789 -0.1172 -36.4366 -0.3092 37.1419 36.8326
11.2000 0.2711 -0.1333 -38.0870 -0.3240 38.8154 38.4914
11.1000 0.2729 -0.1501 -39.6985 -0.3396 40.4611 40.1215
11.0000 0.2595 -0.1685 -41.3574 -0.3546 42.1399 41.7853
10.9000 0.2495 -0.1842 -43.0054 -0.3697 43.8089 43.4391
10.8000 0.2715 -0.1992 -44.6461 -0.3857 45.5025 45.1168
10.7000 0.3030 -0.2136 -46.2887 -0.4009 47.2062 46.8053
10.6000 0.3378 -0.2290 -47.9146 -0.4139 48.8953 48.4814
10.5000 0.3789 -0.2448 -49.5970 -0.4289 50.6496 50.2207
10.4000 0.4088 -0.2635 -51.2066 -0.4450 52.3239 51.8789
10.3000 0.4396 -0.2850 -52.8412 -0.4598 54.0256 53.5658
10.2000 0.4800 -0.3078 -54.4845 -0.4740 55.7462 55.2722
10.1000 0.5172 -0.3324 -56.0975 -0.4869 57.4340 56.9471
10.0000 0.5460 -0.3581 -57.7314 -0.5012 59.1367 58.6355
9.9000 0.5752 -0.3844 -59.3360 -0.5131 60.8085 60.2954
9.8000 0.5979 -0.4113 -60.9423 -0.5246 62.4761 61.9514
9.7000 0.6175 -0.4393 -62.5541 -0.5375 64.1483 63.6109
9.6000 0.6256 -0.4683 -64.2060 -0.5468 65.8466 65.2999
9.5000 0.6130 -0.4987 -65.8763 -0.5567 67.5447 66.9880
9.4000 0.6107 -0.5310 -67.5542 -0.5656 69.2614 68.6958
9.3000 0.6107 -0.5653 -69.2391 -0.5748 70.9897 70.4150
9.2000 0.6041 -0.6016 -70.9412 -0.5827 72.7295 72.1468
9.1000 0.6012 -0.6406 -72.6645 -0.5913 74.4975 73.9062
9.0000 0.6076 -0.6822 -74.3688 -0.6000 76.2585 75.6585
8.9000 0.6019 -0.7269 -76.0431 -0.6108 77.9827 77.3718
8.8000 0.6047 -0.7745 -77.7722 -0.6177 79.7689 79.1512
8.7000 0.6145 -0.8248 -79.4676 -0.6286 81.5353 80.9067
8.6000 0.6224 -0.8787 -81.1699 -0.6376 83.3083 82.6708
8.5000 0.6325 -0.9361 -82.8517 -0.6481 85.0682 84.4202
8.4000 0.6520 -0.9979 -84.5174 -0.6615 86.8287 86.1672
8.3000 0.6654 -1.0629 -86.1530 -0.6765 88.5578 87.8812
8.2000 0.6854 -1.1321 -87.7550 -0.6934 90.2657 89.5723
8.1000 0.7245 -1.2059 -89.3159 -0.7139 91.9601 91.2462
8.0000 0.7625 -1.2850 -90.8062 -0.7355 93.5891 92.8536
7.9000 0.7943 -1.3693 -92.2538 -0.7576 95.1749 94.4173
7.8000 0.8094 -1.4598 -93.6420 -0.7789 96.6899 95.9109
7.7000 0.8191 -1.5564 -95.0192 -0.7992 98.1939 97.3947
7.6000 0.7877 -1.6606 -96.3020 -0.8198 99.5700 98.7502
7.5000 0.7393 -1.7720 -97.5553 -0.8361 100.9026 100.0665
7.4000 0.6180 -1.8918 -98.7990 -0.8513 102.1601 101.3088
7.3000 0.4324 -2.0208 -100.0537 -0.8625 103.3693 102.5068
7.2000 0.1800 -2.1601 -101.3733 -0.8715 104.5850 103.7135
7.1000 -0.1265 -2.3104 -102.7993 -0.8763 105.8596 104.9834
7.0000 -0.4046 -2.4728 -104.3655 -0.8791 107.3131 106.4340
6.9000 -0.6449 -2.6488 -106.0914 -0.8781 108.9737 108.0956
6.8000 -0.7553 -2.8395 -107.9787 -0.8760 110.9392 110.0632
6.7000 -0.6981 -3.0466 -109.9809 -0.8730 113.2029 112.3298
6.6000 -0.4667 -3.2718 -112.0369 -0.8651 115.7076 114.8425
6.5000 -0.1084 -3.5173 -114.1003 -0.8540 118.3636 117.5096
6.4000 0.3098 -3.7850 -116.0821 -0.8395 121.0168 120.1773
6.3000 0.7620 -4.0775 -117.9656 -0.8215 123.6270 122.8055
6.2000 1.2124 -4.3977 -119.7602 -0.7989 126.1696 125.3707
6.1000 1.6605 -4.7488 -121.4152 -0.7697 128.5947 127.8250
6.0000 2.0990 -5.1345 -122.9618 -0.7373 130.9331 130.1958
5.9000 2.5181 -5.5589 -124.4151 -0.7005 133.1933 132.4927
5.8000 2.8730 -6.0266 -125.6745 -0.6603 135.2352 134.5748
5.7000 3.1780 -6.5431 -126.7506 -0.6144 137.0868 136.4724
5.6000 3.4104 -7.1142 -127.6915 -0.5653 138.7822 138.2169
5.5000 3.5328 -7.7467 -128.5259 -0.5100 140.3163 139.8063
5.4000 3.5785 -8.4483 -129.1185 -0.4536 141.5998 141.1462
5.3000 3.5019 -9.2275 -129.6162 -0.3902 142.7368 142.3465
5.2000 3.3030 -10.0936 -129.9529 -0.3253 143.6759 143.3505
5.1000 2.9905 -11.0568 -130.1257 -0.2561 144.4300 144.1738
5.0000 2.5457 -12.1277 -130.1629 -0.1833 145.0205 144.8372
4.9000 1.9437 -13.3172 -130.0614 -0.1070 145.4302 145.3232
4.8000 1.2104 -14.6348 -129.8946 -0.0312 145.7718 145.7406
4.7000 0.3183 -16.0869 -129.6431 0.0474 146.0018 146.0491
4.6000 -0.7335 -17.6733 -129.2855 0.1275 146.0988 146.2263
4.5000 -1.9180 -19.3799 -128.8719 0.2104 146.1244 146.3347
4.4000 -3.1999 -21.1666 -128.3650 0.2950 146.0376 146.3326
4.3000 -4.4977 -22.9426 -127.8091 0.3792 145.8758 146.2550
4.2000 -5.6219 -24.5214 -127.2019 0.4644 145.6378 146.1022
4.1000 -6.1931 -25.5274 -126.5629 0.5490 145.3491 145.8981
4.0000 -5.4617 -25.2072 -125.9456 0.6332 145.0589 145.6921
3.9000 -1.8933 -22.0143 -125.2955 0.7194 144.6982 145.4176
3.8000 7.7962 -12.6626 -124.6611 0.8063 144.3145 145.1208
3.7000 30.9504 10.1832 -124.0429 0.8939 143.9171 144.8110
3.6000 84.9633 63.9410 -123.4801 0.9795 143.5239 144.5034
3.5000 214.3603 193.1361 -122.9715 1.0655 143.1314 144.1969
3.4000 543.0813 521.7172 -122.5661 1.1520 142.7797 143.9316
3.3000 1451.1699 1429.7498 -122.2730 1.2384 142.4578 143.6962
3.2000 4237.8196 4216.4213 -122.1030 1.3239 142.1825 143.5064
3.1000 13923.2583 13901.9867 -122.0624 1.4078 141.9461 143.3539
3.0000 52819.8862 52798.8685 -122.1719 1.4912 141.7514 143.2426
2.9000 237563.9777 237543.4845 -122.4223 1.5757 141.6062 143.1819
2.8000 1305896.3342 1305877.1726 -122.7667 1.6594 141.4851 143.1445
2.7000 9094727.1774 9094716.0927 -123.2296 1.7438 141.4060 143.1498
2.6000 83044340.7755 83044324.6119 -123.7604 1.8282 141.3592 143.1873
2.5000 990181488.0955 990182955.4761 -124.3529 1.9119 141.3167 143.2286
2.4000 12983008899.0108 12983022819.9623 -124.9792 1.9966 141.2863 143.2829
2.3000 97885165780.4704 97885188721.9938 -125.5865 2.0806 141.2613 143.3420
2.2000 134953196860.3137 134953295238.9784 -126.1888 2.1625 141.2470 143.4095
2.1000 26479629583.4950 26479663199.2899 -126.7372 2.2450 141.2071 143.4521
2.0000 2198084135.9722 2198085705.1486 -127.2213 2.3284 141.1738 143.5022
1.9000 372369509.0925 372369922.3878 -127.6045 2.4118 141.1201 143.5319
1.8000 1274301646.5886 1274303193.9667 -127.8900 2.4937 141.0548 143.5486
1.7000 10482175556.9227 10482200141.5872 -128.0544 2.5753 140.9697 143.5450
1.6000 127737054362.1280 127737172417.5812 -128.0992 2.6555 140.8844 143.5399
1.5000 2501917467978.1782 2501920826412.7998 -128.0015 2.7361 140.7718 143.5079
1.4000 76732790270155.7969 76732837288453.1562 -127.7726 2.8167 140.6431 143.4598
1.3000 1693698836807376.2500 1693701416092679.7500 -127.4221 2.8960 140.5018 143.3977
