# 0-dist(Ang),1-dGtot,2-dGvac,3-dGele,4-dGdis,5-dGcav,6-dGvdw(kT)
13.5000 0.0000 0.0000 0.0000 0.0000 0.0000 0.0000
13.4000 -0.0172 0.0000 -0.1974 -0.0075 0.1876 0.1801
13.3000 -0.0015 0.0001 -0.3953 -0.0154 0.4090 0.3937
13.2000 0.0193 0.0003 -0.6001 -0.0236 0.6426 0.6191
13.1000 0.0294 0.0005 -0.8512 -0.0315 0.9114 0.8799
13.0000 0.0410 0.0004 -1.0895 -0.0383 1.1682 1.1300
12.9000 0.0579 -0.0005 -1.3131 -0.0439 1.4153 1.3714
12.8000 0.0591 -0.0018 -1.5349 -0.0493 1.6442 1.5949
12.7000 0.0781 -0.0038 -1.7757 -0.0531 1.9098 1.8567
12.6000 0.0986 -0.0061 -2.0050 -0.0575 2.1662 2.1087
12.5000 0.0986 -0.0087 -2.2300 -0.0620 2.3985 2.3364
12.4000 0.1049 -0.0118 -2.4587 -0.0659 2.6415 2.5755
12.3000 0.1223 -0.0154 -2.6863 -0.0711 2.8952 2.8241
12.2000 0.1250 -0.0191 -2.9330 -0.0748 3.1519 3.0771
12.1000 0.1290 -0.0230 -3.1679 -0.0801 3.4001 3.3200
12.0000 0.1454 -0.0273 -3.3897 -0.0859 3.6484 3.5625
11.9000 0.1672 -0.0340 -3.6038 -0.0917 3.8968 3.8051
11.8000 0.1828 -0.0372 -3.8180 -0.0941 4.1323 4.0382
11.7000 0.1863 -0.0414 -4.0400 -0.0984 4.3663 4.2679
11.6000 0.2035 -0.0462 -4.2593 -0.1045 4.6135 4.5090
11.5000 0.2032 -0.0506 -4.4835 -0.1086 4.8460 4.7374
11.4000 0.1865 -0.0558 -4.6954 -0.1132 5.0510 4.9378
11.3000 0.1914 -0.0611 -4.9104 -0.1181 5.2811 5.1631
11.2000 0.1721 -0.0649 -5.1274 -0.1251 5.4896 5.3646
11.1000 0.1903 -0.0682 -5.3224 -0.1306 5.7116 5.5810
11.0000 0.1741 -0.0710 -5.5284 -0.1343 5.9077 5.7734
10.9000 0.1677 -0.0704 -5.7557 -0.1394 6.1331 5.9937
10.8000 0.1585 -0.0697 -5.9592 -0.1440 6.3314 6.1874
10.7000 0.1515 -0.0685 -6.1642 -0.1497 6.5339 6.3842
10.6000 0.1303 -0.0665 -6.3769 -0.1547 6.7283 6.5736
10.5000 0.1095 -0.0652 -6.5921 -0.1623 6.9290 6.7667
10.4000 0.0979 -0.0635 -6.8078 -0.1693 7.1386 6.9692
10.3000 0.0954 -0.0633 -7.0091 -0.1782 7.3451 7.1669
10.2000 0.0791 -0.0640 -7.2148 -0.1894 7.5464 7.3570
10.1000 0.0679 -0.0660 -7.4080 -0.2007 7.7416 7.5409
10.0000 0.0617 -0.0684 -7.5954 -0.2104 7.9350 7.7246
9.9000 0.0698 -0.0713 -7.8243 -0.2210 8.1866 7.9656
9.8000 0.0624 -0.0757 -8.0209 -0.2299 8.3891 8.1593
9.7000 0.0735 -0.0793 -8.2270 -0.2402 8.6203 8.3801
9.6000 0.0926 -0.0821 -8.4321 -0.2469 8.8540 8.6071
9.5000 0.1495 -0.0852 -8.6310 -0.2526 9.1188 8.8661
9.4000 0.1834 -0.0880 -8.8647 -0.2586 9.3951 9.1365
9.3000 0.2328 -0.0905 -9.1011 -0.2615 9.6863 9.4248
9.2000 0.2777 -0.0944 -9.3447 -0.2624 9.9795 9.7171
9.1000 0.3302 -0.0963 -9.5858 -0.2629 10.2756 10.0127
9.0000 0.3746 -0.0989 -9.8391 -0.2601 10.5730 10.3129
8.9000 0.4223 -0.1014 -10.0962 -0.2574 10.8777 10.6203
8.8000 0.4648 -0.1048 -10.3436 -0.2505 11.1639 10.9134
8.7000 0.5098 -0.1088 -10.5883 -0.2420 11.4490 11.2071
8.6000 0.5252 -0.1121 -10.8579 -0.2318 11.7273 11.4954
8.5000 0.5513 -0.1157 -11.1341 -0.2232 12.0244 11.8012
8.4000 0.5768 -0.1194 -11.3791 -0.2094 12.2846 12.0753
8.3000 0.6072 -0.1234 -11.6341 -0.1975 12.5620 12.3646
8.2000 0.6111 -0.1271 -11.8962 -0.1853 12.8196 12.6342
8.1000 0.5917 -0.1319 -12.1182 -0.1720 13.0141 12.8421
8.0000 0.5819 -0.1378 -12.3348 -0.1614 13.2163 13.0550
7.9000 0.5578 -0.1455 -12.5430 -0.1504 13.3971 13.2467
7.8000 0.5004 -0.1543 -12.7446 -0.1416 13.5406 13.3990
7.7000 0.4363 -0.1645 -12.9235 -0.1368 13.6609 13.5241
7.6000 0.3496 -0.1764 -13.0938 -0.1314 13.7511 13.6197
7.5000 0.2581 -0.1902 -13.2543 -0.1307 13.8330 13.7023
7.4000 0.1594 -0.2056 -13.4051 -0.1265 13.8963 13.7698
7.3000 0.0235 -0.2227 -13.5651 -0.1255 13.9365 13.8110
7.2000 -0.1003 -0.2416 -13.7345 -0.1263 14.0018 13.8755
7.1000 -0.2427 -0.2622 -13.9186 -0.1269 14.0648 13.9379
7.0000 -0.3805 -0.2848 -14.1293 -0.1282 14.1617 14.0335
6.9000 -0.4948 -0.3095 -14.3557 -0.1313 14.3016 14.1703
6.8000 -0.5597 -0.3367 -14.5735 -0.1342 14.4852 14.3510
6.7000 -0.6038 -0.3665 -14.8293 -0.1346 14.7272 14.5926
6.6000 -0.5626 -0.3992 -15.0868 -0.1333 15.0572 14.9239
6.5000 -0.4591 -0.4351 -15.3870 -0.1292 15.4926 15.3635
6.4000 -0.2854 -0.4744 -15.7042 -0.1218 16.0155 15.8937
6.3000 -0.0673 -0.5177 -16.0410 -0.1106 16.6024 16.4918
6.2000 0.1367 -0.5653 -16.4152 -0.0931 17.2106 17.1174
6.1000 0.3017 -0.6176 -16.8122 -0.0684 17.8002 17.7319
6.0000 0.4641 -0.6752 -17.2086 -0.0357 18.3840 18.3484
5.9000 0.5996 -0.7388 -17.6012 0.0034 18.9363 18.9397
5.8000 0.7700 -0.8088 -17.9932 0.0509 19.5211 19.5721
5.7000 0.9898 -0.8861 -18.3936 0.1065 20.1631 20.2697
5.6000 1.1968 -0.9715 -18.7745 0.1720 20.7714 20.9434
5.5000 1.4268 -1.0658 -19.1107 0.2415 21.3625 21.6040
5.4000 1.6335 -1.1701 -19.4070 0.3220 21.8892 22.2112
5.3000 1.8384 -1.2854 -19.6575 0.4097 22.3722 22.7819
5.2000 1.9742 -1.4129 -19.8692 0.5102 22.7468 23.2570
5.1000 2.0844 -1.5540 -20.0580 0.6174 23.0797 23.6971
5.0000 2.1339 -1.7100 -20.2159 0.7353 23.3251 24.0604
4.9000 2.1175 -1.8824 -20.3350 0.8629 23.4726 24.3355
4.8000 2.0457 -2.0727 -20.4068 0.9986 23.5271 24.5258
4.7000 1.9097 -2.2823 -20.4724 1.1466 23.5183 24.6648
4.6000 1.6976 -2.5125 -20.5248 1.3031 23.4319 24.7350
4.5000 1.4269 -2.7644 -20.5588 1.4649 23.2852 24.7501
4.4000 1.1023 -3.0380 -20.5941 1.6366 23.0979 24.7345
4.3000 0.7219 -3.3326 -20.6171 1.8137 22.8584 24.6722
4.2000 0.2975 -3.6454 -20.6116 1.9973 22.5578 24.5551
4.1000 -0.1284 -3.9706 -20.5909 2.1876 22.2459 24.4335
4.0000 -0.5838 -4.2973 -20.5693 2.3823 21.9009 24.2832
3.9000 -1.0461 -4.6069 -20.5418 2.5859 21.5170 24.1029
3.8000 -1.4875 -4.8684 -20.4858 2.7939 21.0732 23.8671
3.7000 -1.8332 -5.0313 -20.4024 3.0061 20.5948 23.6009
3.6000 -2.0175 -5.0143 -20.3059 3.2235 20.0794 23.3029
3.5000 -1.9017 -4.6866 -20.1994 3.4475 19.5371 22.9846
3.4000 -1.2669 -3.8393 -20.0730 3.6713 18.9740 22.6453
3.3000 0.2012 -2.1376 -19.9240 3.8987 18.3641 22.2627
3.2000 3.0553 0.9566 -19.7505 4.1313 17.7178 21.8491
3.1000 8.1573 6.3114 -19.5515 4.3649 17.0330 21.3978
3.0000 16.9113 15.3349 -19.3505 4.6027 16.3247 20.9274
2.9000 31.6301 30.3234 -19.1134 4.8428 15.5777 20.4205
2.8000 56.0493 55.0419 -18.8479 5.0839 14.7717 19.8556
2.7000 96.3963 95.6938 -18.5628 5.3294 13.9364 19.2657
2.6000 162.9188 162.5380 -18.2504 5.5740 13.0578 18.6319
2.5000 272.6248 272.5650 -17.9308 5.8200 12.1711 17.9911
2.4000 453.6148 453.8909 -17.5939 6.0683 11.2501 17.3184
2.3000 752.1684 752.7887 -17.2305 6.3145 10.2963 16.6107
2.2000 1243.5932 1244.5703 -16.8655 6.5608 9.3283 15.8891
2.1000 2048.1210 2049.4492 -16.4896 6.8054 8.3561 15.1615
2.0000 3351.7337 3353.4230 -16.0871 7.0484 7.3496 14.3980
1.9000 5428.7410 5430.7979 -15.6914 7.2866 6.3485 13.6351
1.8000 8655.1896 8657.6141 -15.2800 7.5228 5.3340 12.8568
1.7000 13491.4062 13494.2134 -14.8768 7.7565 4.3149 12.0714
1.6000 20405.2855 20408.4504 -14.4431 7.9842 3.2975 11.2817
1.5000 29730.5305 29734.0602 -14.0137 8.2044 2.2832 10.4876
1.4000 41554.9820 41558.8700 -13.5738 8.4217 1.2713 9.6931
1.3000 55969.6886 55973.9448 -13.1408 8.6317 0.2568 8.8885
