# 0-dist(Ang),1-dGtot,2-dGvac,3-dGele,4-dGdis,5-dGcav,6-dGvdw(kT)
13.5000 0.0000 0.0000 0.0000 0.0000 0.0000 0.0000
13.4000 0.0178 0.0003 -0.5328 -0.0355 0.5859 0.5504
13.3000 0.0292 0.0006 -1.0604 -0.0683 1.1573 1.0890
13.2000 0.0491 0.0010 -1.6011 -0.1053 1.7545 1.6492
13.1000 0.0584 0.0014 -2.1375 -0.1398 2.3342 2.1944
13.0000 0.0760 0.0011 -2.6682 -0.1737 2.9168 2.7431
12.9000 0.0811 0.0009 -3.2227 -0.2063 3.5092 3.3028
12.8000 0.0972 0.0011 -3.7698 -0.2400 4.1058 3.8658
12.7000 0.1100 0.0008 -4.3151 -0.2724 4.6965 4.4242
12.6000 0.1259 -0.0000 -4.8639 -0.3053 5.2950 4.9896
12.5000 0.1481 -0.0028 -5.4176 -0.3392 5.9076 5.5684
12.4000 0.1400 -0.0079 -5.9783 -0.3703 6.4963 6.1260
12.3000 0.1559 -0.0132 -6.5332 -0.4047 7.1067 6.7021
12.2000 0.1571 -0.0189 -7.0928 -0.4341 7.7027 7.2686
12.1000 0.1600 -0.0267 -7.6531 -0.4650 8.3045 7.8395
12.0000 0.1591 -0.0358 -8.1998 -0.4953 8.8898 8.3945
11.9000 0.1913 -0.0462 -8.7332 -0.5285 9.4992 8.9707
11.8000 0.2000 -0.0569 -9.2768 -0.5608 10.0944 9.5336
11.7000 0.1960 -0.0692 -9.8032 -0.5914 10.6601 10.0687
11.6000 0.1901 -0.0830 -10.3308 -0.6227 11.2267 10.6041
11.5000 0.1972 -0.0919 -10.8571 -0.6557 11.8020 11.1463
11.4000 0.2112 -0.1017 -11.3802 -0.6880 12.3811 11.6931
11.3000 0.2173 -0.1108 -11.9059 -0.7195 12.9536 12.2341
11.2000 0.1961 -0.1179 -12.4408 -0.7486 13.5033 12.7547
11.1000 0.1822 -0.1248 -12.9553 -0.7809 14.0433 13.2623
11.0000 0.1673 -0.1319 -13.4841 -0.8112 14.5945 13.7833
10.9000 0.1512 -0.1382 -13.9983 -0.8452 15.1329 14.2876
10.8000 0.1481 -0.1456 -14.5183 -0.8772 15.6893 14.8120
10.7000 0.1479 -0.1537 -15.0350 -0.9126 16.2493 15.3366
10.6000 0.1442 -0.1611 -15.5558 -0.9469 16.8079 15.8611
10.5000 0.1110 -0.1693 -16.0805 -0.9788 17.3397 16.3608
10.4000 0.0863 -0.1775 -16.6070 -1.0134 17.8842 16.8708
10.3000 0.0707 -0.1865 -17.1491 -1.0485 18.4547 17.4063
10.2000 0.0529 -0.1962 -17.6780 -1.0832 19.0102 17.9270
10.1000 0.0357 -0.2069 -18.2362 -1.1181 19.5968 18.4787
10.0000 0.0407 -0.2182 -18.7715 -1.1532 20.1835 19.0304
9.9000 0.0481 -0.2296 -19.3176 -1.1877 20.7829 19.5951
9.8000 0.0838 -0.2415 -19.8603 -1.2221 21.4076 20.1855
9.7000 0.1335 -0.2538 -20.3850 -1.2590 22.0314 20.7724
9.6000 0.1887 -0.2676 -20.9141 -1.2935 22.6640 21.3705
9.5000 0.2619 -0.2820 -21.4479 -1.3279 23.3196 21.9917
9.4000 0.3237 -0.2981 -21.9824 -1.3623 23.9665 22.6042
9.3000 0.3905 -0.3160 -22.5086 -1.3951 24.6102 23.2150
9.2000 0.4753 -0.3329 -23.0431 -1.4268 25.2782 23.8514
9.1000 0.5378 -0.3511 -23.5908 -1.4551 25.9346 24.4795
9.0000 0.6187 -0.3689 -24.1352 -1.4836 26.6062 25.1226
8.9000 0.6575 -0.3891 -24.6671 -1.5094 27.2229 25.7135
8.8000 0.6980 -0.4065 -25.2089 -1.5324 27.8457 26.3133
8.7000 0.7522 -0.4236 -25.7510 -1.5548 28.4813 26.9265
8.6000 0.7809 -0.4407 -26.3034 -1.5753 29.1001 27.5249
8.5000 0.8140 -0.4571 -26.8721 -1.5947 29.7378 28.1431
8.4000 0.8362 -0.4744 -27.4474 -1.6134 30.3713 28.7579
8.3000 0.8585 -0.4926 -28.0221 -1.6315 31.0046 29.3731
8.2000 0.8643 -0.5119 -28.5947 -1.6482 31.6191 29.9709
8.1000 0.8479 -0.5331 -29.1717 -1.6629 32.2155 30.5526
8.0000 0.8239 -0.5561 -29.7372 -1.6794 32.7964 31.1170
7.9000 0.7897 -0.5815 -30.2818 -1.6959 33.3487 31.6528
7.8000 0.7578 -0.6083 -30.8140 -1.7144 33.8943 32.1800
7.7000 0.7321 -0.6377 -31.3401 -1.7332 34.4427 32.7096
7.6000 0.6759 -0.6696 -31.8538 -1.7547 34.9537 33.1990
7.5000 0.6161 -0.7053 -32.3612 -1.7811 35.4632 33.6822
7.4000 0.5342 -0.7436 -32.8579 -1.8050 35.9404 34.1354
7.3000 0.4419 -0.7851 -33.3171 -1.8319 36.3757 34.5437
7.2000 0.3527 -0.8293 -33.7612 -1.8592 36.8022 34.9430
7.1000 0.2658 -0.8767 -34.2032 -1.8870 37.2323 35.3454
7.0000 0.1835 -0.9280 -34.6294 -1.9153 37.6558 35.7405
6.9000 0.1336 -0.9831 -35.0730 -1.9470 38.1365 36.1895
6.8000 0.0950 -1.0425 -35.4910 -1.9796 38.6077 36.6281
6.7000 0.0871 -1.1065 -35.9193 -2.0114 39.1239 37.1125
6.6000 0.1191 -1.1755 -36.3248 -2.0405 39.6595 37.6190
6.5000 0.1535 -1.2498 -36.7249 -2.0669 40.1947 38.1278
6.4000 0.1834 -1.3302 -37.0923 -2.0905 40.6961 38.6056
6.3000 0.1907 -1.4169 -37.4554 -2.1069 41.1696 39.0627
6.2000 0.1214 -1.5108 -37.8367 -2.1153 41.5838 39.4685
6.1000 0.0429 -1.6123 -38.2226 -2.1140 41.9914 39.8774
6.0000 -0.0595 -1.7223 -38.6614 -2.1011 42.4249 40.3238
5.9000 -0.1472 -1.8417 -39.1291 -2.0801 42.9033 40.8232
5.8000 -0.1987 -1.9713 -39.6615 -2.0472 43.4810 41.4338
5.7000 -0.1411 -2.1123 -40.2457 -2.0098 44.2262 42.2164
5.6000 0.0333 -2.2657 -40.8984 -1.9642 45.1613 43.1971
5.5000 0.3428 -2.4329 -41.6127 -1.9102 46.2981 44.3879
5.4000 0.8004 -2.6153 -42.3920 -1.8466 47.6539 45.8072
5.3000 1.3513 -2.8145 -43.1908 -1.7644 49.1205 47.3561
5.2000 1.8743 -3.0322 -43.9277 -1.6677 50.5014 48.8337
5.1000 2.2916 -3.2702 -44.5388 -1.5562 51.6563 50.1001
5.0000 2.6436 -3.5307 -45.0187 -1.4326 52.6252 51.1925
4.9000 2.8743 -3.8158 -45.3729 -1.2958 53.3583 52.0626
4.8000 3.0399 -4.1277 -45.6258 -1.1491 53.9422 52.7931
4.7000 3.0538 -4.4687 -45.7646 -0.9893 54.2761 53.2868
4.6000 2.9555 -4.8408 -45.8324 -0.8131 54.4415 53.6284
4.5000 2.7253 -5.2459 -45.8651 -0.6255 54.4613 53.8358
4.4000 2.3608 -5.6846 -45.8925 -0.4280 54.3654 53.9375
4.3000 1.8751 -6.1567 -45.9110 -0.2231 54.1654 53.9422
4.2000 1.3215 -6.6590 -45.9404 -0.0064 53.9268 53.9204
4.1000 0.7217 -7.1845 -45.9663 0.2146 53.6575 53.8721
4.0000 0.0722 -7.7195 -46.0040 0.4415 53.3537 53.7952
3.9000 -0.5870 -8.2395 -46.0508 0.6764 53.0263 53.7027
3.8000 -1.2268 -8.7024 -46.1071 0.9196 52.6627 53.5823
3.7000 -1.7714 -9.0377 -46.1733 1.1684 52.2708 53.4392
3.6000 -2.0847 -9.1289 -46.2403 1.4203 51.8638 53.2841
3.5000 -1.9593 -8.7840 -46.3056 1.6805 51.4493 53.1298
3.4000 -1.1144 -7.6873 -46.3926 1.9436 51.0214 52.9650
3.3000 0.9865 -5.3184 -46.4828 2.2099 50.5773 52.7872
3.2000 5.2204 -0.8144 -46.5699 2.4780 50.1261 52.6041
3.1000 13.0070 7.2641 -46.6606 2.7525 49.6501 52.4027
3.0000 26.7805 21.3364 -46.7494 3.0279 49.1647 52.1927
2.9000 50.6347 45.5027 -46.8402 3.3056 48.6659 51.9714
2.8000 91.5703 86.7688 -46.9423 3.5864 48.1566 51.7430
2.7000 161.6646 157.1986 -47.0313 3.8670 47.6296 51.4966
2.6000 281.8333 277.7056 -47.1128 4.1482 47.0916 51.2398
2.5000 488.4995 484.7213 -47.1911 4.4317 46.5370 50.9686
2.4000 845.2627 841.8354 -47.2620 4.7134 45.9753 50.6887
2.3000 1462.8727 1459.8001 -47.3231 4.9949 45.4002 50.3951
2.2000 2532.6352 2529.9247 -47.3818 5.2759 44.8161 50.0920
2.1000 4379.4793 4377.1180 -47.4235 5.5532 44.2311 49.7843
2.0000 7539.1578 7537.1623 -47.4490 5.8269 43.6171 49.4441
1.9000 12853.7046 12852.0786 -47.4668 6.0986 42.9946 49.0932
1.8000 21547.4728 21546.2232 -47.4705 6.3646 42.3570 48.7216
1.7000 35186.8583 35185.9769 -47.4489 6.6294 41.7030 48.3324
1.6000 55347.6403 55347.1162 -47.4036 6.8878 41.0455 47.9333
1.5000 82817.1725 82817.0088 -47.3415 7.1418 40.3647 47.5065
1.4000 116436.9279 116437.1233 -47.2479 7.3882 39.6733 47.0615
1.3000 152364.6562 152365.1873 -47.1316 7.6272 38.9858 46.6131
