# 0-dist(Ang),1-dGtot,2-dGvac,3-dGele,4-dGdis,5-dGcav,6-dGvdw(kT)
13.5000 0.0000 0.0000 0.0000 0.0000 0.0000 0.0000
13.4000 0.0105 0.0000 0.0025 -0.0084 0.0164 0.0080
13.3000 0.0250 0.0000 0.0114 -0.0097 0.0232 0.0136
13.2000 0.0492 0.0000 0.0119 -0.0115 0.0487 0.0372
13.1000 0.0735 0.0000 -0.0023 -0.0142 0.0900 0.0758
13.0000 0.0917 0.0000 -0.0273 -0.0162 0.1352 0.1190
12.9000 0.1238 0.0000 -0.0355 -0.0170 0.1763 0.1592
12.8000 0.1689 0.0001 -0.0323 -0.0169 0.2181 0.2012
12.7000 0.2259 0.0002 -0.0432 -0.0192 0.2882 0.2690
12.6000 0.2613 0.0002 -0.0514 -0.0168 0.3293 0.3125
12.5000 0.3136 0.0001 -0.0732 -0.0172 0.4040 0.3868
12.4000 0.3687 0.0000 -0.0889 -0.0155 0.4731 0.4577
12.3000 0.3778 -0.0000 -0.0923 -0.0140 0.4842 0.4702
12.2000 0.4143 -0.0002 -0.0714 -0.0109 0.4970 0.4861
12.1000 0.4274 -0.0003 -0.0612 -0.0087 0.4977 0.4890
12.0000 0.4459 -0.0010 -0.0409 -0.0054 0.4934 0.4879
11.9000 0.4131 -0.0092 -0.0336 -0.0015 0.4575 0.4560
11.8000 0.3997 -0.0113 -0.0113 0.0008 0.4216 0.4224
11.7000 0.3535 -0.0159 -0.0051 0.0054 0.3692 0.3745
11.6000 0.3014 -0.0154 0.0052 0.0088 0.3029 0.3116
11.5000 0.2563 -0.0141 -0.0149 0.0130 0.2726 0.2856
11.4000 0.1885 -0.0124 -0.0313 0.0182 0.2142 0.2324
11.3000 0.1234 -0.0102 -0.0448 0.0219 0.1568 0.1786
11.2000 0.0569 -0.0079 -0.0707 0.0264 0.1093 0.1357
11.1000 -0.0147 -0.0030 -0.0911 0.0278 0.0518 0.0796
11.0000 -0.0830 0.0021 -0.1039 0.0336 -0.0146 0.0190
10.9000 -0.1417 0.0075 -0.1030 0.0354 -0.0815 -0.0461
10.8000 -0.2207 0.0128 -0.1353 0.0406 -0.1388 -0.0982
10.7000 -0.2771 0.0162 -0.1616 0.0412 -0.1730 -0.1317
10.6000 -0.3139 0.0189 -0.1663 0.0393 -0.2059 -0.1665
10.5000 -0.3809 0.0211 -0.1758 0.0353 -0.2615 -0.2262
10.4000 -0.4272 0.0227 -0.1861 0.0292 -0.2929 -0.2637
10.3000 -0.4780 0.0227 -0.1919 0.0241 -0.3330 -0.3089
10.2000 -0.5144 0.0240 -0.2067 0.0155 -0.3474 -0.3320
10.1000 -0.5202 0.0252 -0.2338 0.0072 -0.3189 -0.3118
10.0000 -0.5326 0.0260 -0.2215 -0.0052 -0.3321 -0.3373
9.9000 -0.5281 0.0264 -0.2274 -0.0181 -0.3091 -0.3272
9.8000 -0.4971 0.0265 -0.2233 -0.0320 -0.2685 -0.3005
9.7000 -0.4372 0.0261 -0.2056 -0.0474 -0.2104 -0.2578
9.6000 -0.3636 0.0255 -0.1829 -0.0592 -0.1472 -0.2064
9.5000 -0.2690 0.0240 -0.1344 -0.0672 -0.0915 -0.1587
9.4000 -0.1335 0.0224 -0.0939 -0.0769 0.0147 -0.0622
9.3000 0.0028 0.0206 -0.0415 -0.0795 0.1030 0.0235
9.2000 0.2037 0.0186 -0.0146 -0.0828 0.2823 0.1995
9.1000 0.4425 0.0162 0.0319 -0.0805 0.4748 0.3943
9.0000 0.7086 0.0135 0.0700 -0.0746 0.6996 0.6250
8.9000 0.9622 0.0105 0.0999 -0.0567 0.9083 0.8516
8.8000 1.2369 0.0071 0.1149 -0.0338 1.1485 1.1147
8.7000 1.4474 0.0033 0.1319 -0.0046 1.3166 1.3120
8.6000 1.5847 -0.0009 0.1540 0.0294 1.4022 1.4316
8.5000 1.6699 -0.0056 0.2005 0.0648 1.4101 1.4749
8.4000 1.6547 -0.0108 0.2338 0.1053 1.3263 1.4316
8.3000 1.5935 -0.0166 0.2362 0.1518 1.2218 1.3737
8.2000 1.4792 -0.0229 0.2515 0.1944 1.0560 1.2504
8.1000 1.3195 -0.0300 0.2622 0.2363 0.8507 1.0870
8.0000 1.1184 -0.0378 0.2499 0.2743 0.6317 0.9060
7.9000 0.9059 -0.0465 0.2356 0.3104 0.4060 0.7164
7.8000 0.6406 -0.0561 0.2265 0.3444 0.1255 0.4699
7.7000 0.3515 -0.0668 0.1636 0.3738 -0.1193 0.2545
7.6000 0.0899 -0.0788 0.1162 0.3982 -0.3460 0.0522
7.5000 -0.1950 -0.0920 0.0630 0.4188 -0.5851 -0.1663
7.4000 -0.4901 -0.1067 0.0002 0.4303 -0.8141 -0.3838
7.3000 -0.7597 -0.1231 -0.0710 0.4388 -1.0045 -0.5658
7.2000 -1.0189 -0.1413 -0.1430 0.4410 -1.1757 -0.7347
7.1000 -1.2542 -0.1616 -0.2472 0.4393 -1.2848 -0.8454
7.0000 -1.4654 -0.1842 -0.3447 0.4362 -1.3727 -0.9365
6.9000 -1.6395 -0.2094 -0.4303 0.4304 -1.4302 -0.9998
6.8000 -1.7738 -0.2375 -0.5244 0.4292 -1.4412 -1.0120
6.7000 -1.8457 -0.2688 -0.6509 0.4359 -1.3619 -0.9260
6.6000 -1.8420 -0.3038 -0.7925 0.4507 -1.1965 -0.7458
6.5000 -1.7025 -0.3429 -0.9396 0.4781 -0.8983 -0.4202
6.4000 -1.4384 -0.3867 -1.0883 0.5192 -0.4829 0.0363
6.3000 -0.9922 -0.4356 -1.2526 0.5750 0.1207 0.6957
6.2000 -0.3311 -0.4903 -1.4610 0.6454 0.9746 1.6200
6.1000 0.5838 -0.5516 -1.6687 0.7310 2.0727 2.8038
6.0000 1.7877 -0.6202 -1.8917 0.8343 3.4651 4.2994
5.9000 3.2343 -0.6971 -2.1243 0.9590 5.0967 6.0557
5.8000 4.6216 -0.7834 -2.2196 1.1223 6.5021 7.6244
5.7000 5.4257 -0.8802 -2.1285 1.3436 7.0905 8.4342
5.6000 5.7794 -0.9887 -1.8747 1.5983 7.0444 8.6427
5.5000 5.9921 -1.1106 -1.5362 1.8676 6.7713 8.6389
5.4000 6.0894 -1.2474 -1.1344 2.1584 6.3126 8.4711
5.3000 6.1158 -1.4010 -0.6844 2.4633 5.7377 8.2011
5.2000 6.0685 -1.5734 -0.2120 2.7819 5.0718 7.8537
5.1000 5.9522 -1.7668 0.2905 3.1152 4.3132 7.4283
5.0000 5.8208 -1.9837 0.8168 3.4577 3.5297 6.9875
4.9000 5.6594 -2.2266 1.3621 3.8089 2.7149 6.5237
4.8000 5.4584 -2.4983 1.9206 4.1735 1.8624 6.0360
4.7000 5.1778 -2.8016 2.5248 4.5497 0.9048 5.4545
4.6000 4.8578 -3.1392 3.1567 4.9325 -0.0921 4.8404
4.5000 4.4721 -3.5137 3.8191 5.3223 -1.1555 4.1668
4.4000 4.0008 -3.9267 4.4858 5.7225 -2.2806 3.4419
4.3000 3.4724 -4.3791 5.1786 6.1281 -3.4552 2.6730
4.2000 2.8134 -4.8697 5.9088 6.5422 -4.7677 1.7744
4.1000 2.0609 -5.3943 6.6594 6.9613 -6.1654 0.7959
4.0000 1.2349 -5.9438 7.4206 7.3823 -7.6241 -0.2418
3.9000 0.3438 -6.5016 8.2050 7.8056 -9.1652 -1.3596
3.8000 -0.5756 -7.0394 8.9752 8.2338 -10.7450 -2.5112
3.7000 -1.4847 -7.5114 9.7447 8.6602 -12.3781 -3.7179
3.6000 -2.2980 -7.8443 10.5170 9.0852 -14.0559 -4.9707
3.5000 -2.9171 -7.9231 11.3027 9.5072 -15.8040 -6.2968
3.4000 -3.1337 -7.5689 12.0751 9.9294 -17.5695 -7.6401
3.3000 -2.6881 -6.5037 12.8496 10.3480 -19.3823 -9.0343
3.2000 -1.1339 -4.2958 13.6237 10.7633 -21.2254 -10.4621
3.1000 2.2145 -0.2726 14.3881 11.1755 -23.0769 -11.9013
3.0000 8.3759 6.6196 15.1530 11.5826 -24.9795 -13.3969
2.9000 19.0425 18.0440 15.9160 11.9830 -26.9007 -14.9177
2.8000 36.8736 36.6512 16.6706 12.3770 -28.8255 -16.4485
2.7000 66.1092 66.7133 17.4345 12.7650 -30.8039 -18.0389
2.6000 113.7330 115.2088 18.1877 13.1418 -32.8056 -19.6638
2.5000 191.3348 193.7119 18.9419 13.5112 -34.8304 -21.3192
2.4000 318.4410 321.7572 19.6885 13.8708 -36.8759 -23.0050
2.3000 528.6992 532.9675 20.4339 14.2208 -38.9234 -24.7025
2.2000 881.2630 886.5238 21.1889 14.5560 -41.0060 -26.4500
2.1000 1482.9210 1489.2433 21.9533 14.8759 -43.1515 -28.2756
2.0000 2532.0740 2539.4785 22.7266 15.1807 -45.3116 -30.1309
1.9000 4409.1174 4417.6485 23.5092 15.4689 -47.5088 -32.0399
1.8000 7870.7050 7880.4059 24.2794 15.7366 -49.7160 -33.9794
1.7000 14485.6707 14496.5788 25.0616 15.9844 -51.9523 -35.9679
1.6000 27663.5930 27675.7662 25.8467 16.2083 -54.2243 -38.0160
1.5000 55222.2215 55235.7005 26.6445 16.4078 -56.5239 -40.1161
1.4000 116212.4661 116227.3094 27.4373 16.5765 -58.8386 -42.2621
1.3000 260392.4225 260408.7168 28.2537 16.7201 -61.2410 -44.5210
