# 0-dist(Ang),1-dGtot,2-dGvac,3-dGele,4-dGdis,5-dGcav,6-dGvdw(kT)
13.5000 0.0000 0.0000 0.0000 0.0000 0.0000 0.0000
13.4000 0.0063 0.0000 -0.4868 0.0077 0.4853 0.4930
13.3000 0.0044 0.0000 -0.9807 0.0167 0.9684 0.9851
13.2000 0.0178 0.0000 -1.4626 0.0258 1.4545 1.4804
13.1000 0.0241 0.0000 -1.9545 0.0351 1.9436 1.9786
13.0000 0.0188 0.0000 -2.4587 0.0447 2.4328 2.4775
12.9000 0.0210 0.0000 -2.9525 0.0546 2.9189 2.9735
12.8000 0.0392 0.0000 -3.4538 0.0633 3.4297 3.4930
12.7000 0.0527 0.0000 -3.9495 0.0724 3.9299 4.0023
12.6000 0.0774 0.0000 -4.4536 0.0816 4.4494 4.5311
12.5000 0.0981 0.0000 -4.9425 0.0893 4.9513 5.0407
12.4000 0.1312 0.0000 -5.4306 0.0981 5.4638 5.5620
12.3000 0.1516 0.0000 -5.9272 0.1079 5.9710 6.0789
12.2000 0.1756 0.0000 -6.4185 0.1167 6.4776 6.5943
12.1000 0.2047 0.0000 -6.9102 0.1264 6.9888 7.1152
12.0000 0.2216 0.0000 -7.3921 0.1358 7.4780 7.6138
11.9000 0.2271 -0.0041 -7.8752 0.1452 7.9613 8.1065
11.8000 0.2399 -0.0114 -8.3423 0.1539 8.4400 8.5940
11.7000 0.2448 -0.0221 -8.7983 0.1628 8.9027 9.0654
11.6000 0.2536 -0.0361 -9.2655 0.1718 9.3836 9.5554
11.5000 0.2611 -0.0535 -9.7404 0.1805 9.8748 10.0553
11.4000 0.2604 -0.0750 -10.2020 0.1882 10.3494 10.5376
11.3000 0.2566 -0.1008 -10.6856 0.1973 10.8459 11.0431
11.2000 0.2509 -0.1308 -11.1759 0.2065 11.3514 11.5579
11.1000 0.2434 -0.1652 -11.6522 0.2161 11.8447 12.0609
11.0000 0.2386 -0.2040 -12.1463 0.2255 12.3635 12.5890
10.9000 0.2225 -0.2430 -12.6232 0.2345 12.8543 13.0888
10.8000 0.2204 -0.2825 -13.0994 0.2445 13.3580 13.6025
10.7000 0.2273 -0.3219 -13.5835 0.2545 13.8783 14.1329
10.6000 0.2341 -0.3587 -14.0638 0.2636 14.3931 14.6567
10.5000 0.2393 -0.3938 -14.5327 0.2721 14.8939 15.1660
10.4000 0.2359 -0.4267 -14.9898 0.2806 15.3720 15.6526
10.3000 0.2624 -0.4585 -15.4541 0.2896 15.8856 16.1752
10.2000 0.2761 -0.4896 -15.9078 0.2985 16.3752 16.6736
10.1000 0.3000 -0.5219 -16.3517 0.3075 16.8663 17.1738
10.0000 0.3336 -0.5559 -16.8051 0.3169 17.3779 17.6948
9.9000 0.3724 -0.5960 -17.2450 0.3245 17.8891 18.2136
9.8000 0.4040 -0.6425 -17.6822 0.3348 18.3940 18.7288
9.7000 0.4169 -0.6968 -18.1131 0.3425 18.8845 19.2270
9.6000 0.4379 -0.7620 -18.5299 0.3521 19.3780 19.7301
9.5000 0.4496 -0.8381 -18.9307 0.3614 19.8571 20.2185
9.4000 0.4574 -0.9253 -19.3407 0.3716 20.3518 20.7234
9.3000 0.4668 -1.0236 -19.7454 0.3797 20.8563 21.2360
9.2000 0.4576 -1.1340 -20.1462 0.3878 21.3501 21.7379
9.1000 0.4365 -1.2565 -20.5367 0.3948 21.8351 22.2299
9.0000 0.4052 -1.3907 -20.9145 0.4032 22.3074 22.7106
8.9000 0.3826 -1.5325 -21.3016 0.4119 22.8049 23.2168
8.8000 0.3685 -1.6734 -21.6750 0.4203 23.2967 23.7171
8.7000 0.3604 -1.8161 -22.0431 0.4286 23.7911 24.2197
8.6000 0.3565 -1.9600 -22.4021 0.4359 24.2827 24.7186
8.5000 0.3561 -2.1062 -22.7683 0.4442 24.7864 25.2307
8.4000 0.3920 -2.2554 -23.1244 0.4529 25.2971 25.7500
8.3000 0.4151 -2.4073 -23.4722 0.4611 25.8115 26.2726
8.2000 0.4372 -2.5630 -23.8045 0.4699 26.3130 26.7829
8.1000 0.4803 -2.7254 -24.1430 0.4784 26.8485 27.3269
8.0000 0.4936 -2.8992 -24.4579 0.4869 27.3639 27.8508
7.9000 0.5349 -3.0853 -24.7745 0.4949 27.9000 28.3949
7.8000 0.5783 -3.2850 -25.0836 0.5031 28.4440 28.9471
7.7000 0.6182 -3.4982 -25.3905 0.5128 28.9942 29.5070
7.6000 0.6389 -3.7277 -25.6732 0.5213 29.5187 30.0399
7.5000 0.6712 -3.9732 -25.9452 0.5294 30.0602 30.5896
7.4000 0.6779 -4.2343 -26.1991 0.5383 30.5730 31.1113
7.3000 0.6859 -4.5104 -26.4263 0.5471 31.0755 31.6226
7.2000 0.6681 -4.8027 -26.6567 0.5549 31.5726 32.1275
7.1000 0.6482 -5.1132 -26.8809 0.5644 32.0779 32.6423
7.0000 0.6181 -5.4427 -27.0806 0.5724 32.5688 33.1412
6.9000 0.5631 -5.7926 -27.2906 0.5810 33.0651 33.6461
6.8000 0.5312 -6.1589 -27.4604 0.5897 33.5606 34.1503
6.7000 0.4932 -6.5396 -27.6150 0.5978 34.0498 34.6476
6.6000 0.4505 -6.9355 -27.7481 0.6061 34.5278 35.1339
6.5000 0.4097 -7.3475 -27.8787 0.6151 35.0206 35.6357
6.4000 0.3661 -7.7759 -27.9748 0.6237 35.4928 36.1164
6.3000 0.3410 -8.2203 -28.0605 0.6317 35.9899 36.6216
6.2000 0.3246 -8.6813 -28.1371 0.6386 36.5042 37.1428
6.1000 0.3195 -9.1607 -28.1756 0.6454 37.0104 37.6557
6.0000 0.3349 -9.6590 -28.1873 0.6529 37.5284 38.1812
5.9000 0.3534 -10.1811 -28.1641 0.6592 38.0393 38.6985
5.8000 0.3882 -10.7279 -28.1241 0.6659 38.5743 39.2401
5.7000 0.4380 -11.3003 -28.0754 0.6728 39.1409 39.8137
5.6000 0.4925 -11.8991 -28.0171 0.6809 39.7279 40.4087
5.5000 0.5279 -12.5251 -27.9375 0.6894 40.3254 41.0148
5.4000 0.6219 -13.1791 -27.8166 0.6967 40.9210 41.6177
5.3000 0.6963 -13.8611 -27.6892 0.7049 41.5418 42.2467
5.2000 0.7738 -14.5731 -27.5314 0.7114 42.1669 42.8782
5.1000 0.8337 -15.3169 -27.3487 0.7197 42.7795 43.4992
5.0000 0.8725 -16.0944 -27.1542 0.7271 43.3940 44.1211
4.9000 0.8548 -16.9068 -26.9039 0.7353 43.9301 44.6654
4.8000 0.7456 -17.7560 -26.6040 0.7431 44.3623 45.1054
4.7000 0.5276 -18.6439 -26.2484 0.7501 44.6698 45.4199
4.6000 0.2457 -19.5741 -25.8682 0.7585 44.9294 45.6879
4.5000 -0.0279 -20.5480 -25.4470 0.7669 45.2001 45.9670
4.4000 -0.2192 -21.5681 -25.0585 0.7770 45.6304 46.4074
4.3000 -0.2568 -22.6367 -24.6657 0.7891 46.2564 47.0455
4.2000 -0.0678 -23.7561 -24.2359 0.8009 47.1231 47.9240
4.1000 0.3266 -24.9292 -23.6565 0.8117 48.1004 48.9121
4.0000 0.8427 -26.1588 -22.8594 0.8211 49.0398 49.8609
3.9000 1.3436 -27.4484 -21.7626 0.8270 49.7274 50.5544
3.8000 1.7689 -28.8018 -20.3460 0.8309 50.0856 50.9165
3.7000 2.0872 -30.2234 -18.6664 0.8339 50.1429 50.9768
3.6000 2.3646 -31.7178 -16.7657 0.8340 50.0138 50.8478
3.5000 2.6101 -33.2903 -14.6629 0.8330 49.7301 50.5631
3.4000 2.8195 -34.9464 -12.3594 0.8317 49.2933 50.1250
3.3000 3.0134 -36.6926 -9.8611 0.8327 48.7341 49.5668
3.2000 3.1751 -38.5360 -7.1823 0.8352 48.0580 48.8931
3.1000 3.2893 -40.4845 -4.3435 0.8405 47.2764 48.1170
3.0000 3.3095 -42.5469 -1.3476 0.8490 46.3788 47.2278
2.9000 3.3340 -44.7327 1.7714 0.8594 45.4355 46.2949
2.8000 3.2410 -47.0526 5.0191 0.8739 44.4001 45.2740
2.7000 3.0417 -49.5180 8.3774 0.8906 43.2912 44.1818
2.6000 2.7199 -52.1412 11.8244 0.9103 42.1259 43.0362
2.5000 2.2810 -54.9346 15.3657 0.9329 40.9164 41.8493
2.4000 1.7045 -57.9099 18.9631 0.9578 39.6930 40.6508
2.3000 0.9574 -61.0767 22.6075 0.9851 38.4408 39.4260
2.2000 0.0485 -64.4388 26.3307 1.0151 37.1409 38.1560
2.1000 -1.0166 -67.9888 30.0687 1.0483 35.8546 36.9029
2.0000 -2.2087 -71.6969 33.8350 1.0845 34.5680 35.6524
1.9000 -3.4839 -75.4909 37.6079 1.1245 33.2738 34.3984
1.8000 -4.6773 -79.2176 41.3735 1.1669 31.9993 33.1662
1.7000 -5.5037 -82.5667 45.1188 1.2122 30.7313 31.9435
1.6000 -5.3609 -84.9156 48.8268 1.2614 29.4659 30.7273
1.5000 -2.9709 -84.9941 52.5064 1.3137 28.2024 29.5162
1.4000 4.3375 -80.1067 56.1577 1.3694 26.9163 28.2858
1.3000 22.6197 -64.1704 59.7388 1.4290 25.6217 27.0506
