# 0-dist(Ang),1-dGtot,2-dGvac,3-dGele,4-dGdis,5-dGcav,6-dGvdw(kT)
13.5000 0.0000 0.0000 0.0000 0.0000 0.0000 0.0000
13.4000 0.0028 0.0006 1.4143 0.0724 -1.4845 -1.4121
13.3000 0.0015 0.0014 2.8236 0.1421 -2.9656 -2.8235
13.2000 0.0063 0.0023 4.2292 0.2108 -4.4360 -4.2253
13.1000 0.0121 0.0034 5.6382 0.2828 -5.9124 -5.6296
13.0000 0.0210 0.0046 7.0442 0.3553 -7.3831 -7.0278
12.9000 0.0213 0.0055 8.4496 0.4279 -8.8617 -8.4338
12.8000 0.0158 0.0062 9.8830 0.4994 -10.3728 -9.8734
12.7000 0.0150 0.0061 11.3008 0.5713 -11.8633 -11.2919
12.6000 0.0075 0.0047 12.7058 0.6440 -13.3470 -12.7030
12.5000 0.0016 0.0026 14.1258 0.7156 -14.8427 -14.1270
12.4000 -0.0186 -0.0000 15.5209 0.7892 -16.3289 -15.5397
12.3000 -0.0326 -0.0035 16.9455 0.8595 -17.8343 -16.9747
12.2000 -0.0453 -0.0077 18.3613 0.9312 -19.3303 -18.3991
12.1000 -0.0775 -0.0127 19.7762 1.0069 -20.8486 -19.8417
12.0000 -0.1087 -0.0194 21.1898 1.0811 -22.3606 -21.2795
11.9000 -0.1355 -0.0307 22.5893 1.1548 -23.8492 -22.6945
11.8000 -0.1595 -0.0413 24.0161 1.2285 -25.3631 -24.1346
11.7000 -0.1933 -0.0506 25.4239 1.3014 -26.8683 -25.5669
11.6000 -0.2174 -0.0559 26.8395 1.3755 -28.3768 -27.0013
11.5000 -0.2295 -0.0598 28.2546 1.4501 -29.8747 -28.4246
11.4000 -0.2510 -0.0641 29.6528 1.5259 -31.3658 -29.8398
11.3000 -0.2746 -0.0677 31.0747 1.6004 -32.8823 -31.2818
11.2000 -0.2963 -0.0723 32.5076 1.6749 -34.4064 -32.7315
11.1000 -0.3044 -0.0751 33.9343 1.7482 -35.9118 -34.1637
11.0000 -0.3082 -0.0787 35.3550 1.8208 -37.4052 -35.5844
10.9000 -0.3180 -0.0820 36.7866 1.8948 -38.9172 -37.0224
10.8000 -0.3506 -0.0872 38.1862 1.9668 -40.4164 -38.4496
10.7000 -0.3820 -0.0944 39.6103 2.0410 -41.9389 -39.8978
10.6000 -0.4023 -0.0998 41.0350 2.1129 -43.4504 -41.3375
10.5000 -0.4396 -0.1091 42.4493 2.1856 -44.9654 -42.7798
10.4000 -0.4565 -0.1190 43.8659 2.2542 -46.4575 -44.2033
10.3000 -0.4783 -0.1290 45.2909 2.3253 -47.9656 -45.6402
10.2000 -0.4949 -0.1386 46.7177 2.3962 -49.4705 -47.0743
10.1000 -0.5036 -0.1479 48.1460 2.4650 -50.9670 -48.5020
10.0000 -0.5105 -0.1569 49.5727 2.5348 -52.4617 -49.9268
9.9000 -0.5108 -0.1631 50.9966 2.6025 -53.9472 -51.3448
9.8000 -0.5103 -0.1721 52.4233 2.6730 -55.4350 -52.7620
9.7000 -0.4813 -0.1804 53.8437 2.7427 -56.8876 -54.1449
9.6000 -0.4585 -0.1916 55.2744 2.8140 -58.3557 -55.5416
9.5000 -0.4286 -0.2056 56.6982 2.8863 -59.8077 -56.9214
9.4000 -0.3991 -0.2195 58.1186 2.9592 -61.2577 -58.2985
9.3000 -0.3551 -0.2388 59.5371 3.0329 -62.6865 -59.6536
9.2000 -0.3012 -0.2606 60.9583 3.1087 -64.1079 -60.9992
9.1000 -0.2651 -0.2860 62.3900 3.1872 -65.5566 -62.3694
9.0000 -0.2271 -0.3111 63.8187 3.2697 -67.0050 -63.7353
8.9000 -0.2066 -0.3412 65.2218 3.3534 -68.4411 -65.0876
8.8000 -0.2009 -0.3737 66.6314 3.4434 -69.9024 -66.4591
8.7000 -0.2102 -0.4035 68.0415 3.5324 -71.3810 -67.8486
8.6000 -0.2317 -0.4322 69.4446 3.6262 -72.8708 -69.2447
8.5000 -0.2794 -0.4628 70.8530 3.7197 -74.3897 -70.6701
8.4000 -0.3521 -0.4943 72.2555 3.8172 -75.9310 -72.1138
8.3000 -0.4289 -0.5252 73.6612 3.9143 -77.4796 -73.5653
8.2000 -0.5147 -0.5572 75.0715 4.0107 -79.0401 -75.0294
8.1000 -0.6111 -0.5883 76.4793 4.1062 -80.6086 -76.5024
8.0000 -0.7151 -0.6196 77.8859 4.2000 -82.1818 -77.9818
7.9000 -0.8218 -0.6499 79.3024 4.2922 -83.7670 -79.4748
7.8000 -0.9547 -0.6800 80.7081 4.3841 -85.3673 -80.9832
7.7000 -1.0879 -0.7112 82.1160 4.4716 -86.9650 -82.4934
7.6000 -1.2139 -0.7445 83.5290 4.5538 -88.5528 -83.9990
7.5000 -1.3501 -0.7799 84.9484 4.6328 -90.1521 -85.5192
7.4000 -1.4811 -0.8176 86.3680 4.7086 -91.7407 -87.0321
7.3000 -1.6069 -0.8578 87.7803 4.7851 -93.3152 -88.5301
7.2000 -1.7252 -0.9007 89.2145 4.8588 -94.8986 -90.0397
7.1000 -1.8195 -0.9473 90.6423 4.9328 -96.4478 -91.5151
7.0000 -1.8826 -0.9983 92.0686 5.0070 -97.9605 -92.9535
6.9000 -1.9114 -1.0537 93.5001 5.0817 -99.4402 -94.3585
6.8000 -1.8810 -1.1141 94.9204 5.1587 -100.8466 -95.6880
6.7000 -1.8021 -1.1798 96.3617 5.2378 -102.2225 -96.9846
6.6000 -1.6496 -1.2515 97.8122 5.3198 -103.5307 -98.2109
6.5000 -1.3990 -1.3293 99.2430 5.4027 -104.7164 -99.3137
6.4000 -1.0672 -1.4139 100.6777 5.4925 -105.8244 -100.3319
6.3000 -0.6515 -1.5059 102.1217 5.5895 -106.8575 -101.2680
6.2000 -0.1660 -1.6059 103.5538 5.6928 -107.8076 -102.1149
6.1000 0.3193 -1.7146 105.0043 5.8151 -108.7864 -102.9713
6.0000 0.7072 -1.8331 106.4408 5.9641 -109.8654 -103.9013
5.9000 0.9785 -1.9623 107.8731 6.1383 -111.0715 -104.9332
5.8000 1.0903 -2.1033 109.3093 6.3380 -112.4544 -106.1164
5.7000 1.1133 -2.2574 110.7478 6.5608 -113.9388 -107.3780
5.6000 1.0809 -2.4259 112.1891 6.7988 -115.4820 -108.6832
5.5000 1.0074 -2.6104 113.6132 7.0556 -117.0519 -109.9963
5.4000 0.8811 -2.8125 115.0462 7.3253 -118.6787 -111.3534
5.3000 0.7229 -3.0340 116.4738 7.6063 -120.3240 -112.7177
5.2000 0.5286 -3.2768 117.8998 7.8985 -121.9941 -114.0956
5.1000 0.2914 -3.5430 119.3167 8.2068 -123.6901 -115.4833
5.0000 0.0096 -3.8348 120.7264 8.5246 -125.4077 -116.8831
4.9000 -0.3238 -4.1542 122.1620 8.8541 -127.1869 -118.3328
4.8000 -0.7053 -4.5033 123.5864 9.1934 -128.9830 -119.7896
4.7000 -1.1529 -4.8838 125.0239 9.5437 -130.8377 -121.2941
4.6000 -1.6303 -5.2969 126.4610 9.9015 -132.6970 -122.7955
4.5000 -2.1723 -5.7427 127.8903 10.2674 -134.5883 -124.3209
4.4000 -2.7602 -6.2193 129.3144 10.6416 -136.4980 -125.8564
4.3000 -3.3844 -6.7220 130.7505 11.0253 -138.4393 -127.4140
4.2000 -4.0513 -7.2414 132.1769 11.4135 -140.4013 -128.9878
4.1000 -4.7396 -7.7604 133.5894 11.8084 -142.3781 -130.5697
4.0000 -5.4073 -8.2498 135.0238 12.2079 -144.3906 -132.1827
3.9000 -6.0326 -8.6612 136.4409 12.6128 -146.4263 -133.8135
3.8000 -6.5116 -8.9157 137.8457 13.0207 -148.4636 -135.4428
3.7000 -6.7213 -8.8845 139.2398 13.4297 -150.5076 -137.0779
3.6000 -6.4545 -8.3581 140.6474 13.8413 -152.5865 -138.7452
3.5000 -5.3629 -6.9933 142.0384 14.2542 -154.6636 -140.4094
3.4000 -2.8784 -4.2214 143.4250 14.6705 -156.7539 -142.0834
3.3000 1.9505 0.9117 144.7883 15.0848 -158.8356 -143.7508
3.2000 10.7523 10.0364 146.1605 15.5010 -160.9468 -145.4459
3.1000 26.3662 25.9959 147.5409 15.9158 -163.0877 -147.1719
3.0000 53.8853 53.8711 148.9161 16.3293 -165.2325 -148.9032
2.9000 102.6378 102.9977 150.2587 16.7420 -167.3618 -150.6198
2.8000 190.3394 191.0794 151.6253 17.1511 -169.5176 -152.3665
2.7000 351.7730 352.9030 152.9510 17.5578 -171.6403 -154.0825
2.6000 658.0379 659.5823 154.2896 17.9610 -173.7964 -155.8353
2.5000 1261.0422 1263.0157 155.6201 18.3605 -175.9555 -157.5950
2.4000 2501.2260 2503.6312 156.9426 18.7566 -178.1056 -159.3490
2.3000 5182.6263 5185.4816 158.2463 19.1474 -180.2501 -161.1027
2.2000 11314.6493 11317.9667 159.5533 19.5292 -182.4009 -162.8717
2.1000 26230.0666 26233.8570 160.8529 19.9057 -184.5520 -164.6464
2.0000 65000.3198 65004.6012 162.1838 20.2729 -186.7342 -166.4613
1.9000 173035.4742 173040.2429 163.5094 20.6322 -188.9077 -168.2754
1.8000 495904.5768 495909.8054 164.8193 20.9813 -191.0767 -170.0954
1.7000 1526079.1424 1526084.6271 166.1197 21.3179 -193.2263 -171.9084
1.6000 4987562.5168 4987568.5021 167.4358 21.6412 -195.4029 -173.7617
1.5000 16868704.1580 16868709.5092 168.7645 21.9506 -197.5855 -175.6349
1.4000 56121791.3361 56121799.0585 170.1001 22.2460 -199.7681 -177.5221
1.3000 168322206.5691 168322202.3765 171.4476 22.5247 -201.9843 -179.4596
