# 0-dist(Ang),1-dGtot,2-dGvac,3-dGele,4-dGdis,5-dGcav,6-dGvdw(kT)
13.5000 0.0000 0.0000 0.0000 0.0000 0.0000 0.0000
13.4000 0.0293 0.0000 -3.8982 -0.0235 3.9510 3.9275
13.3000 0.0416 0.0000 -7.8185 -0.0471 7.9072 7.8601
13.2000 0.0958 0.0000 -11.7048 -0.0716 11.8723 11.8007
13.1000 0.1565 0.0000 -15.6248 -0.0962 15.8776 15.7814
13.0000 0.1969 0.0000 -19.5128 -0.1217 19.8314 19.7098
12.9000 0.2481 0.0000 -23.3686 -0.1465 23.7634 23.6168
12.8000 0.3006 -0.0093 -27.2097 -0.1702 27.6899 27.5197
12.7000 0.3325 -0.0315 -31.0793 -0.1925 31.6360 31.4434
12.6000 0.3424 -0.0734 -34.9546 -0.2158 35.5863 35.3705
12.5000 0.3565 -0.1316 -38.7785 -0.2397 39.5066 39.2668
12.4000 0.3847 -0.1983 -42.6088 -0.2628 43.4548 43.1920
12.3000 0.3952 -0.2727 -46.4070 -0.2867 47.3618 47.0751
12.2000 0.4312 -0.3461 -50.1926 -0.3106 51.2806 50.9701
12.1000 0.4430 -0.4210 -54.0114 -0.3337 55.2092 54.8755
12.0000 0.4488 -0.4973 -57.8550 -0.3580 59.1594 58.8013
11.9000 0.4536 -0.5808 -61.6762 -0.3817 63.0925 62.7108
11.8000 0.4720 -0.6698 -65.4528 -0.4054 67.0004 66.5949
11.7000 0.4957 -0.7647 -69.2217 -0.4281 70.9106 70.4825
11.6000 0.5308 -0.8656 -72.9981 -0.4511 74.8459 74.3949
11.5000 0.5577 -0.9728 -76.7553 -0.4753 78.7615 78.2862
11.4000 0.5691 -1.0862 -80.5238 -0.4980 82.6775 82.1794
11.3000 0.5802 -1.2061 -84.3108 -0.5220 86.6194 86.0974
11.2000 0.6115 -1.3325 -88.0694 -0.5462 90.5599 90.0137
11.1000 0.6223 -1.4657 -91.8246 -0.5705 94.4835 93.9130
11.0000 0.6406 -1.6073 -95.5603 -0.5940 98.4026 97.8085
10.9000 0.6726 -1.7605 -99.3203 -0.6184 102.3723 101.7538
10.8000 0.6974 -1.9249 -103.0361 -0.6426 106.3014 105.6587
10.7000 0.7142 -2.1018 -106.7836 -0.6670 110.2669 109.5999
10.6000 0.7525 -2.2920 -110.4812 -0.6919 114.2180 113.5261
10.5000 0.7643 -2.4969 -114.1869 -0.7164 118.1650 117.4486
10.4000 0.7730 -2.7142 -117.8539 -0.7402 122.0818 121.3416
10.3000 0.7923 -2.9440 -121.5441 -0.7653 126.0463 125.2810
10.2000 0.8319 -3.1880 -125.2105 -0.7889 130.0198 129.2309
10.1000 0.8770 -3.4443 -128.8528 -0.8106 133.9852 133.1746
10.0000 0.9114 -3.7131 -132.5269 -0.8338 137.9858 137.1520
9.9000 0.9285 -3.9957 -136.2360 -0.8582 142.0188 141.1607
9.8000 0.9692 -4.2914 -139.8731 -0.8809 146.0152 145.1342
9.7000 0.9965 -4.6011 -143.4684 -0.9032 149.9697 149.0665
9.6000 1.0003 -4.9253 -147.0949 -0.9264 153.9475 153.0211
9.5000 1.0172 -5.2643 -150.6661 -0.9478 157.8960 156.9481
9.4000 1.0125 -5.6186 -154.2458 -0.9698 161.8472 160.8774
9.3000 1.0359 -5.9885 -157.8353 -0.9933 165.8536 164.8603
9.2000 1.0466 -6.3745 -161.4244 -1.0178 169.8639 168.8461
9.1000 1.0524 -6.7771 -164.9246 -1.0411 173.7958 172.7547
9.0000 1.0613 -7.1972 -168.3971 -1.0648 177.7211 176.6563
8.9000 1.0681 -7.6353 -171.8932 -1.0872 181.6845 180.5973
8.8000 1.0718 -8.0915 -175.3369 -1.1103 185.6112 184.5009
8.7000 1.0698 -8.5668 -178.7577 -1.1337 189.5286 188.3949
8.6000 1.0616 -9.0628 -182.1800 -1.1580 193.4631 192.3051
8.5000 1.0507 -9.5798 -185.5429 -1.1822 197.3563 196.1741
8.4000 1.0472 -10.1197 -188.9090 -1.2055 201.2821 200.0765
8.3000 1.0445 -10.6834 -192.2435 -1.2300 205.2021 203.9721
8.2000 1.0405 -11.2686 -195.5628 -1.2556 209.1283 207.8727
8.1000 1.0347 -11.8777 -198.7805 -1.2814 212.9752 211.6938
8.0000 1.0458 -12.5115 -202.0332 -1.3075 216.8990 215.5914
7.9000 1.0532 -13.1708 -205.2933 -1.3338 220.8519 219.5181
7.8000 1.0487 -13.8557 -208.4949 -1.3598 224.7599 223.4001
7.7000 1.0482 -14.5687 -211.7010 -1.3849 228.7035 227.3186
7.6000 1.0780 -15.3081 -214.8502 -1.4124 232.6495 231.2371
7.5000 1.1067 -16.0760 -217.9629 -1.4361 236.5825 235.1464
7.4000 1.1401 -16.8738 -221.0724 -1.4614 240.5485 239.0871
7.3000 1.1632 -17.7028 -224.1587 -1.4873 244.5129 243.0257
7.2000 1.1915 -18.5644 -227.2251 -1.5124 248.4943 246.9819
7.1000 1.1894 -19.4601 -230.2653 -1.5354 252.4511 250.9157
7.0000 1.2102 -20.3911 -233.2231 -1.5565 256.3817 254.8253
6.9000 1.2414 -21.3589 -236.1395 -1.5779 260.3185 258.7407
6.8000 1.2638 -22.3655 -239.0754 -1.5970 264.3027 262.7057
6.7000 1.2747 -23.4117 -241.9691 -1.6153 268.2718 266.6565
6.6000 1.3038 -24.4996 -244.7514 -1.6304 272.1860 270.5557
6.5000 1.3152 -25.6313 -247.5308 -1.6431 276.1215 274.4784
6.4000 1.3608 -26.8092 -250.2627 -1.6542 280.0879 278.4337
6.3000 1.4016 -28.0340 -252.9460 -1.6652 284.0477 282.3826
6.2000 1.4558 -29.3083 -255.5806 -1.6754 288.0211 286.3457
6.1000 1.5360 -30.6346 -258.1849 -1.6837 292.0401 290.3564
6.0000 1.6166 -32.0158 -260.7658 -1.6919 296.0912 294.3993
5.9000 1.7157 -33.4534 -263.2633 -1.7001 300.1336 298.4335
5.8000 1.7879 -34.9513 -265.7106 -1.7100 304.1608 302.4508
5.7000 1.8188 -36.5115 -268.1052 -1.7181 308.1547 306.4365
5.6000 1.8645 -38.1377 -270.4068 -1.7267 312.1367 310.4100
5.5000 1.8654 -39.8334 -272.6640 -1.7358 316.0997 314.3639
5.4000 1.8497 -41.6024 -274.8580 -1.7446 320.0557 318.3111
5.3000 1.8273 -43.4485 -276.9539 -1.7515 323.9821 322.2306
5.2000 1.8096 -45.3758 -278.9969 -1.7590 327.9424 326.1833
5.1000 1.7950 -47.3893 -280.9151 -1.7662 331.8665 330.1003
5.0000 1.7771 -49.4937 -282.8014 -1.7733 335.8464 334.0732
4.9000 1.7536 -51.6945 -284.6236 -1.7780 339.8508 338.0727
4.8000 1.7689 -53.9972 -286.2969 -1.7784 343.8425 342.0641
4.7000 1.7812 -56.4082 -287.9307 -1.7764 347.8975 346.1211
4.6000 1.8105 -58.9336 -289.4403 -1.7694 351.9548 350.1854
4.5000 1.8614 -61.5803 -290.8632 -1.7608 356.0667 354.3059
4.4000 1.9225 -64.3553 -292.2517 -1.7471 360.2777 358.5306
4.3000 1.9855 -67.2658 -293.5301 -1.7320 364.5145 362.7825
4.2000 2.1059 -70.3187 -294.6743 -1.7147 368.8147 367.1000
4.1000 2.2225 -73.5203 -295.5481 -1.6938 372.9858 371.2920
4.0000 2.3412 -76.8755 -296.3073 -1.6727 377.1977 375.5250
3.9000 2.4199 -80.3865 -296.7411 -1.6504 381.1991 379.5486
3.8000 2.4595 -84.0514 -296.9321 -1.6258 385.0699 383.4441
3.7000 2.4507 -87.8602 -296.6983 -1.5999 388.6102 387.0104
3.6000 2.3975 -91.7905 -296.1719 -1.5726 391.9337 390.3611
3.5000 2.3136 -95.7989 -295.2835 -1.5432 394.9405 393.3973
3.4000 2.2082 -99.8084 -294.0160 -1.5134 397.5471 396.0337
3.3000 2.1869 -103.6861 -292.2669 -1.4819 399.6229 398.1411
3.2000 2.4895 -107.2086 -290.2041 -1.4481 401.3513 399.9032
3.1000 3.4486 -110.0022 -287.8784 -1.4126 402.7427 401.3301
3.0000 5.6885 -111.4446 -285.2360 -1.3737 403.7439 402.3702
2.9000 10.2476 -110.4960 -282.3777 -1.3308 404.4532 403.1224
2.8000 18.8885 -105.4090 -279.3920 -1.2845 404.9750 403.6905
2.7000 34.5368 -93.2211 -276.2658 -1.2351 405.2598 404.0247
2.6000 62.2913 -68.8501 -273.0412 -1.1820 405.3656 404.1836
2.5000 110.9896 -23.4408 -269.7943 -1.1259 405.3517 404.2257
2.4000 196.3681 58.7474 -266.5040 -1.0635 405.1893 404.1258
2.3000 347.1426 206.4748 -263.2864 -0.9990 404.9543 403.9553
2.2000 617.9847 474.4081 -260.0889 -0.9307 404.5976 403.6669
2.1000 1119.1610 972.8483 -257.0273 -0.8586 404.2003 403.3418
2.0000 2094.5586 1945.6972 -254.0446 -0.7855 403.6941 402.9087
1.9000 4161.9084 4010.6992 -251.2131 -0.7084 403.1351 402.4268
1.8000 9200.4790 9047.0940 -248.5227 -0.6289 402.5480 401.9190
1.7000 24316.2470 24160.9192 -246.0361 -0.5476 401.9345 401.3869
1.6000 83422.7850 83265.6549 -243.7162 -0.4642 401.3313 400.8671
1.5000 393316.3718 393158.0797 -241.5931 -0.3779 400.7191 400.3411
1.4000 2614749.3671 2614592.0749 -239.7224 -0.2879 400.1623 399.8744
1.3000 25413917.2024 25413762.3263 -238.1181 -0.1976 399.6775 399.4799
