# 0-dist(Ang),1-dGtot,2-dGvac,3-dGele,4-dGdis,5-dGcav,6-dGvdw(kT)
13.5000 0.0000 0.0000 0.0000 0.0000 0.0000 0.0000
13.4000 0.0147 0.0001 1.8630 0.0235 -1.8719 -1.8484
13.3000 0.0279 0.0001 3.6990 0.0502 -3.7214 -3.6712
13.2000 0.0391 0.0003 5.5653 0.0788 -5.6052 -5.5264
13.1000 0.0658 0.0004 7.3930 0.1051 -7.4326 -7.3275
13.0000 0.0718 0.0005 9.2407 0.1302 -9.2995 -9.1693
12.9000 0.0971 0.0002 11.1021 0.1541 -11.1593 -11.0052
12.8000 0.1099 0.0001 12.9745 0.1802 -13.0449 -12.8646
12.7000 0.1369 -0.0003 14.8045 0.2078 -14.8751 -14.6672
12.6000 0.1494 -0.0010 16.6881 0.2332 -16.7709 -16.5377
12.5000 0.1721 -0.0018 18.5748 0.2632 -18.6645 -18.4013
12.4000 0.1758 -0.0026 20.4702 0.2889 -20.5812 -20.2923
12.3000 0.1626 -0.0036 22.3471 0.3177 -22.4990 -22.1813
12.2000 0.1572 -0.0047 24.2126 0.3459 -24.3969 -24.0510
12.1000 0.1519 -0.0059 26.0953 0.3743 -26.3126 -25.9384
12.0000 0.1312 -0.0079 27.9250 0.4037 -28.1901 -27.7864
11.9000 0.1050 -0.0131 29.7865 0.4340 -30.1029 -29.6689
11.8000 0.0585 -0.0181 31.6152 0.4651 -32.0044 -31.5393
11.7000 0.0284 -0.0234 33.4482 0.4977 -33.8948 -33.3970
11.6000 -0.0008 -0.0283 35.3331 0.5305 -35.8366 -35.3061
11.5000 -0.0351 -0.0333 37.2121 0.5639 -37.7783 -37.2145
11.4000 -0.0842 -0.0391 39.0361 0.5937 -39.6752 -39.0815
11.3000 -0.1193 -0.0447 40.8935 0.6261 -41.5944 -40.9684
11.2000 -0.1870 -0.0515 42.7358 0.6581 -43.5296 -42.8715
11.1000 -0.2110 -0.0573 44.6193 0.6903 -45.4636 -44.7733
11.0000 -0.2577 -0.0643 46.4733 0.7227 -47.3895 -46.6668
10.9000 -0.2956 -0.0706 48.3569 0.7544 -49.3365 -48.5821
10.8000 -0.3666 -0.0780 50.2018 0.7869 -51.2775 -50.4906
10.7000 -0.4192 -0.0861 52.0662 0.8152 -53.2149 -52.3997
10.6000 -0.4721 -0.0921 53.9047 0.8465 -55.1316 -54.2850
10.5000 -0.5110 -0.1015 55.7543 0.8727 -57.0368 -56.1641
10.4000 -0.5657 -0.1122 57.6227 0.9005 -58.9770 -58.0765
10.3000 -0.6201 -0.1229 59.5198 0.9261 -60.9433 -60.0172
10.2000 -0.6565 -0.1338 61.3882 0.9519 -62.8633 -61.9114
10.1000 -0.6803 -0.1441 63.2435 0.9756 -64.7558 -63.7802
10.0000 -0.6958 -0.1544 65.1097 1.0006 -66.6525 -65.6519
9.9000 -0.7217 -0.1624 66.9772 1.0230 -68.5604 -67.5374
9.8000 -0.6902 -0.1729 68.8420 1.0445 -70.4047 -69.3602
9.7000 -0.6662 -0.1831 70.7369 1.0694 -72.2900 -71.2206
9.6000 -0.6312 -0.1967 72.6213 1.0921 -74.1485 -73.0564
9.5000 -0.5501 -0.2127 74.4859 1.1148 -75.9387 -74.8239
9.4000 -0.4482 -0.2288 76.3555 1.1396 -77.7150 -76.5754
9.3000 -0.3260 -0.2495 78.2193 1.1673 -79.4636 -78.2963
9.2000 -0.1728 -0.2717 80.1124 1.1971 -81.2110 -80.0139
9.1000 -0.0211 -0.2974 81.9717 1.2319 -82.9276 -81.6957
9.0000 0.1522 -0.3242 83.8148 1.2707 -84.6097 -83.3391
8.9000 0.2998 -0.3557 85.7011 1.3129 -86.3592 -85.0462
8.8000 0.4214 -0.3895 87.5358 1.3593 -88.0847 -86.7254
8.7000 0.5247 -0.4198 89.4135 1.4084 -89.8779 -88.4695
8.6000 0.5456 -0.4470 91.2595 1.4672 -91.7346 -90.2674
8.5000 0.5809 -0.4748 93.1446 1.5249 -93.6142 -92.0893
8.4000 0.5588 -0.5029 95.0308 1.5878 -95.5574 -93.9696
8.3000 0.5103 -0.5298 96.9240 1.6528 -97.5371 -95.8844
8.2000 0.4336 -0.5576 98.8155 1.7195 -99.5441 -97.8246
8.1000 0.3257 -0.5844 100.6501 1.7845 -101.5249 -99.7404
8.0000 0.1899 -0.6121 102.4822 1.8488 -103.5295 -101.6807
7.9000 0.0135 -0.6396 104.3467 1.9129 -105.6070 -103.6940
7.8000 -0.1841 -0.6681 106.1919 1.9750 -107.6832 -105.7082
7.7000 -0.3808 -0.6986 108.0713 2.0296 -109.7838 -107.7542
7.6000 -0.6057 -0.7321 109.9248 2.0815 -111.8803 -109.7989
7.5000 -0.8213 -0.7681 111.7968 2.1284 -113.9791 -111.8507
7.4000 -1.0615 -0.8071 113.6685 2.1706 -116.0942 -113.9236
7.3000 -1.2808 -0.8490 115.5410 2.2121 -118.1856 -115.9735
7.2000 -1.4923 -0.8939 117.4111 2.2487 -120.2590 -118.0102
7.1000 -1.6823 -0.9422 119.2731 2.2833 -122.2974 -120.0140
7.0000 -1.8572 -0.9942 121.1424 2.3166 -124.3227 -122.0061
6.9000 -1.9891 -1.0505 123.0138 2.3508 -126.3041 -123.9533
6.8000 -2.0585 -1.1112 124.8984 2.3877 -128.2343 -125.8465
6.7000 -2.0831 -1.1769 126.8206 2.4281 -130.1558 -127.7277
6.6000 -2.0237 -1.2479 128.6856 2.4754 -131.9375 -129.4621
6.5000 -1.8683 -1.3249 130.5775 2.5330 -133.6550 -131.1220
6.4000 -1.6199 -1.4083 132.4459 2.5963 -135.2547 -132.6584
6.3000 -1.2667 -1.4987 134.3276 2.6684 -136.7648 -134.0964
6.2000 -0.8202 -1.5969 136.2184 2.7491 -138.1917 -135.4426
6.1000 -0.2459 -1.7035 138.1105 2.8427 -139.4964 -136.6536
6.0000 0.3842 -1.8196 139.9722 2.9496 -140.7188 -137.7692
5.9000 0.9954 -1.9460 141.8172 3.0701 -141.9467 -138.8766
5.8000 1.4460 -2.0839 143.6724 3.2161 -143.3591 -140.1431
5.7000 1.7299 -2.2344 145.5236 3.3858 -144.9457 -141.5599
5.6000 1.9309 -2.3989 147.3667 3.5761 -146.6136 -143.0375
5.5000 2.0474 -2.5789 149.2250 3.7833 -148.3827 -144.5993
5.4000 2.1180 -2.7761 151.0641 4.0117 -150.1823 -146.1706
5.3000 2.1277 -2.9923 152.8950 4.2551 -152.0307 -147.7756
5.2000 2.0665 -3.2293 154.7496 4.5168 -153.9714 -149.4546
5.1000 1.9765 -3.4895 156.6286 4.7896 -155.9528 -151.1631
5.0000 1.8392 -3.7750 158.4838 5.0760 -157.9462 -152.8702
4.9000 1.5785 -4.0883 160.3408 5.3804 -160.0551 -154.6746
4.8000 1.2683 -4.4316 162.1992 5.7002 -162.2001 -156.4999
4.7000 0.8889 -4.8074 164.0637 6.0355 -164.4033 -158.3679
4.6000 0.4331 -5.2175 165.9263 6.3826 -166.6588 -160.2763
4.5000 -0.0970 -5.6631 167.8033 6.7431 -168.9806 -162.2376
4.4000 -0.7084 -6.1442 169.6876 7.1164 -171.3685 -164.2522
4.3000 -1.3843 -6.6583 171.5652 7.4995 -173.7911 -166.2916
4.2000 -2.1241 -7.1993 173.4385 7.8933 -176.2569 -168.3636
4.1000 -2.9113 -7.7548 175.3109 8.2969 -178.7645 -170.4676
4.0000 -3.7227 -8.3024 177.1887 8.7081 -181.3176 -172.6095
3.9000 -4.5103 -8.8032 179.0558 9.1256 -183.8888 -174.7632
3.8000 -5.2357 -9.1916 180.8811 9.5524 -186.4778 -176.9254
3.7000 -5.7711 -9.3575 182.7147 9.9862 -189.1148 -179.1286
3.6000 -5.9016 -9.1174 184.5624 10.4190 -191.7659 -181.3469
3.5000 -5.3620 -8.1635 186.3815 10.8566 -194.4367 -183.5801
3.4000 -3.5942 -5.9750 188.1815 11.3015 -197.1022 -185.8007
3.3000 0.2544 -1.6586 189.9980 11.7462 -199.8311 -188.0849
3.2000 7.7628 6.3452 191.7971 12.1881 -202.5675 -190.3794
3.1000 21.7237 20.8159 193.5523 12.6334 -205.2778 -192.6444
3.0000 47.2223 46.8309 195.3280 13.0782 -208.0149 -194.9367
2.9000 93.7728 93.9298 197.0851 13.5243 -210.7665 -197.2423
2.8000 179.8990 180.6134 198.8347 13.9669 -213.5160 -199.5491
2.7000 342.7543 344.0580 200.5790 14.4073 -216.2905 -201.8832
2.6000 660.0678 661.9647 202.3123 14.8442 -219.0536 -204.2094
2.5000 1301.4229 1303.9265 204.0323 15.2754 -221.8114 -206.5360
2.4000 2654.8487 2657.9816 205.7307 15.7066 -224.5701 -208.8635
2.3000 5654.9675 5658.7272 207.4007 16.1274 -227.2876 -211.1602
2.2000 12680.0818 12684.4797 209.1105 16.5427 -230.0489 -213.5062
2.1000 30146.6526 30151.7043 210.7724 16.9513 -232.7719 -215.8205
2.0000 76455.5959 76461.3269 212.4460 17.3471 -235.5042 -218.1571
1.9000 207755.5004 207761.9255 214.1447 17.7311 -238.2748 -220.5437
1.8000 605971.3927 605978.6001 215.8397 18.1014 -241.0438 -222.9424
1.7000 1891920.8806 1891928.9150 217.5706 18.4621 -243.8555 -225.3933
1.6000 6253465.2649 6253473.8183 219.2952 18.8060 -246.6377 -227.8317
1.5000 21326791.8347 21326802.7614 221.0324 19.1337 -249.4479 -230.3142
1.4000 71354869.8729 71354886.4467 222.7654 19.4416 -252.2569 -232.8153
1.3000 214724509.1880 214724545.8891 224.5566 19.7317 -255.1177 -235.3861
