# 0-dist(Ang),1-dGtot,2-dGvac,3-dGele,4-dGdis,5-dGcav,6-dGvdw(kT)
13.5000 0.0000 0.0000 0.0000 0.0000 0.0000 0.0000
13.4000 -0.0108 0.0000 0.3977 -0.0115 -0.3969 -0.4084
13.3000 -0.0197 0.0000 0.8119 -0.0238 -0.8077 -0.8316
13.2000 -0.0296 0.0000 1.2213 -0.0350 -1.2158 -1.2508
13.1000 -0.0285 0.0000 1.6276 -0.0456 -1.6105 -1.6561
13.0000 -0.0363 0.0000 2.0363 -0.0555 -2.0170 -2.0725
12.9000 -0.0404 0.0000 2.4326 -0.0654 -2.4076 -2.4730
12.8000 -0.0334 0.0000 2.8196 -0.0767 -2.7763 -2.8530
12.7000 -0.0234 0.0000 3.2174 -0.0889 -3.1519 -3.2409
12.6000 -0.0115 0.0000 3.6232 -0.1022 -3.5325 -3.6348
12.5000 -0.0221 0.0000 4.0277 -0.1129 -3.9369 -4.0498
12.4000 -0.0261 0.0000 4.4236 -0.1224 -4.3274 -4.4498
12.3000 -0.0238 0.0000 4.8130 -0.1326 -4.7043 -4.8369
12.2000 -0.0217 0.0000 5.2127 -0.1434 -5.0910 -5.2344
12.1000 -0.0207 0.0000 5.6099 -0.1514 -5.4793 -5.6307
12.0000 -0.0038 0.0000 6.0058 -0.1606 -5.8491 -6.0097
11.9000 0.0068 -0.0029 6.3981 -0.1746 -6.2139 -6.3884
11.8000 -0.0027 -0.0080 6.8083 -0.1848 -6.6181 -6.8030
11.7000 -0.0204 -0.0161 7.2174 -0.1968 -7.0249 -7.2217
11.6000 -0.0324 -0.0275 7.6279 -0.2095 -7.4234 -7.6329
11.5000 -0.0495 -0.0421 8.0322 -0.2194 -7.8202 -8.0396
11.4000 -0.0641 -0.0594 8.4441 -0.2324 -8.2165 -8.4489
11.3000 -0.0863 -0.0783 8.8624 -0.2428 -8.6276 -8.8704
11.2000 -0.1093 -0.0985 9.2732 -0.2531 -9.0309 -9.2840
11.1000 -0.1372 -0.1200 9.6917 -0.2620 -9.4469 -9.7089
11.0000 -0.1601 -0.1427 10.1006 -0.2740 -9.8440 -10.1180
10.9000 -0.1816 -0.1610 10.5148 -0.2848 -10.2506 -10.5354
10.8000 -0.1952 -0.1752 10.9232 -0.2957 -10.6475 -10.9432
10.7000 -0.1975 -0.1841 11.3233 -0.3067 -11.0300 -11.3367
10.6000 -0.2032 -0.1879 11.7344 -0.3170 -11.4326 -11.7496
10.5000 -0.1732 -0.1871 12.1453 -0.3299 -11.8014 -12.1313
10.4000 -0.1718 -0.1832 12.5451 -0.3421 -12.1916 -12.5337
10.3000 -0.1448 -0.1806 12.9564 -0.3546 -12.5660 -12.9206
10.2000 -0.1417 -0.1816 13.3549 -0.3649 -12.9500 -13.3150
10.1000 -0.1344 -0.1861 13.7803 -0.3762 -13.3525 -13.7287
10.0000 -0.1280 -0.1950 14.1894 -0.3863 -13.7362 -14.1225
9.9000 -0.1357 -0.2076 14.5899 -0.3972 -14.1207 -14.5180
9.8000 -0.1479 -0.2242 15.0061 -0.4067 -14.5232 -14.9299
9.7000 -0.1673 -0.2493 15.4134 -0.4184 -14.9131 -15.3315
9.6000 -0.1821 -0.2786 15.8383 -0.4313 -15.3106 -15.7419
9.5000 -0.2185 -0.3095 16.2263 -0.4424 -15.6930 -16.1354
9.4000 -0.2449 -0.3440 16.6242 -0.4536 -16.0715 -16.5251
9.3000 -0.2604 -0.3755 17.0288 -0.4645 -16.4494 -16.9139
9.2000 -0.2671 -0.4030 17.4234 -0.4775 -16.8101 -17.2875
9.1000 -0.2741 -0.4265 17.8391 -0.4897 -17.1970 -17.6867
9.0000 -0.2711 -0.4474 18.2351 -0.5002 -17.5586 -18.0588
8.9000 -0.2746 -0.4678 18.6441 -0.5107 -17.9401 -18.4508
8.8000 -0.2754 -0.4803 19.0411 -0.5195 -18.3166 -18.8362
8.7000 -0.2514 -0.4867 19.4591 -0.5303 -18.6933 -19.2236
8.6000 -0.2345 -0.4915 19.8767 -0.5393 -19.0802 -19.6195
8.5000 -0.2078 -0.4979 20.3083 -0.5490 -19.4690 -20.0180
8.4000 -0.1836 -0.5063 20.7346 -0.5588 -19.8530 -20.4118
8.3000 -0.1597 -0.5201 21.1580 -0.5680 -20.2295 -20.7974
8.2000 -0.1459 -0.5437 21.5976 -0.5786 -20.6209 -21.1996
8.1000 -0.1353 -0.5731 22.0627 -0.5875 -21.0372 -21.6247
8.0000 -0.1371 -0.6107 22.5239 -0.5966 -21.4537 -22.0504
7.9000 -0.1596 -0.6535 22.9782 -0.6077 -21.8765 -22.4842
7.8000 -0.1697 -0.6998 23.4576 -0.6181 -22.3094 -22.9275
7.7000 -0.2021 -0.7518 23.9489 -0.6275 -22.7717 -23.3992
7.6000 -0.2410 -0.8102 24.4221 -0.6365 -23.2165 -23.8530
7.5000 -0.2773 -0.8663 24.8983 -0.6452 -23.6641 -24.3094
7.4000 -0.3349 -0.9198 25.3860 -0.6573 -24.1437 -24.8010
7.3000 -0.4034 -0.9712 25.8525 -0.6691 -24.6155 -25.2846
7.2000 -0.4699 -1.0187 26.3196 -0.6816 -25.0892 -25.7708
7.1000 -0.5515 -1.0652 26.7532 -0.6943 -25.5452 -26.2395
7.0000 -0.6211 -1.1113 27.1540 -0.7068 -25.9570 -26.6638
6.9000 -0.6947 -1.1610 27.5391 -0.7229 -26.3499 -27.0728
6.8000 -0.7680 -1.2173 27.9056 -0.7394 -26.7170 -27.4564
6.7000 -0.8343 -1.2775 28.2519 -0.7554 -27.0534 -27.8088
6.6000 -0.8638 -1.3417 28.6022 -0.7723 -27.3521 -28.1244
6.5000 -0.8735 -1.4098 28.9367 -0.7893 -27.6112 -28.4005
6.4000 -0.8553 -1.4810 29.2797 -0.8054 -27.8487 -28.6541
6.3000 -0.8068 -1.5573 29.6373 -0.8228 -28.0641 -28.8869
6.2000 -0.7303 -1.6394 29.9964 -0.8396 -28.2478 -29.0875
6.1000 -0.6389 -1.7262 30.3953 -0.8534 -28.4546 -29.3080
6.0000 -0.5363 -1.8194 30.8178 -0.8701 -28.6645 -29.5347
5.9000 -0.3965 -1.9165 31.2774 -0.8869 -28.8706 -29.7575
5.8000 -0.2536 -2.0199 31.7896 -0.9013 -29.1220 -30.0233
5.7000 -0.0953 -2.1304 32.3621 -0.9171 -29.4100 -30.3270
5.6000 0.0486 -2.2472 32.9836 -0.9306 -29.7573 -30.6879
5.5000 0.1963 -2.3668 33.6798 -0.9445 -30.1723 -31.1168
5.4000 0.3195 -2.4926 34.4297 -0.9548 -30.6630 -31.6177
5.3000 0.3949 -2.6232 35.2356 -0.9622 -31.2556 -32.2177
5.2000 0.4319 -2.7587 36.0799 -0.9661 -31.9234 -32.8895
5.1000 0.4055 -2.9017 36.9701 -0.9669 -32.6962 -33.6631
5.0000 0.3075 -3.0530 37.8566 -0.9668 -33.5294 -34.4962
4.9000 0.1303 -3.2144 38.7192 -0.9641 -34.4105 -35.3746
4.8000 -0.1439 -3.3880 39.5416 -0.9611 -35.3366 -36.2977
4.7000 -0.4650 -3.5726 40.2803 -0.9585 -36.2145 -37.1730
4.6000 -0.7997 -3.7690 40.9322 -0.9555 -37.0077 -37.9632
4.5000 -1.1163 -3.9782 41.4714 -0.9520 -37.6578 -38.6098
4.4000 -1.3629 -4.2014 41.9166 -0.9494 -38.1289 -39.0783
4.3000 -1.5016 -4.4400 42.2758 -0.9481 -38.3894 -39.3375
4.2000 -1.5805 -4.6952 42.5951 -0.9469 -38.5336 -39.4805
4.1000 -1.6322 -4.9691 42.8738 -0.9474 -38.5897 -39.5371
4.0000 -1.6578 -5.2631 43.1430 -0.9513 -38.5865 -39.5378
3.9000 -1.6535 -5.5792 43.3880 -0.9546 -38.5078 -39.4624
3.8000 -1.6108 -5.9195 43.6367 -0.9569 -38.3712 -39.3281
3.7000 -1.5149 -6.2865 43.8988 -0.9585 -38.1686 -39.1271
3.6000 -1.3811 -6.6828 44.2038 -0.9575 -37.9447 -38.9022
3.5000 -1.1875 -7.1112 44.5847 -0.9519 -37.7092 -38.6611
3.4000 -0.9653 -7.5753 45.0622 -0.9457 -37.5068 -38.4525
3.3000 -0.7169 -8.0787 45.6308 -0.9363 -37.3330 -38.2693
3.2000 -0.4577 -8.6254 46.3128 -0.9226 -37.2226 -38.1452
3.1000 -0.2139 -9.2202 47.1333 -0.9017 -37.2256 -38.1273
3.0000 0.0623 -9.8681 48.0553 -0.8763 -37.2489 -38.1251
2.9000 0.2905 -10.5746 49.1130 -0.8457 -37.4024 -38.2482
2.8000 0.4675 -11.3458 50.2983 -0.8047 -37.6807 -38.4854
2.7000 0.6050 -12.1877 51.6228 -0.7569 -38.0735 -38.8304
2.6000 0.6727 -13.1066 53.0683 -0.6999 -38.5894 -39.2893
2.5000 0.6518 -14.1080 54.6354 -0.6331 -39.2428 -39.8759
2.4000 0.5180 -15.1954 56.2887 -0.5546 -40.0211 -40.5757
2.3000 0.2672 -16.3689 58.0166 -0.4630 -40.9179 -41.3809
2.2000 -0.1430 -17.6209 59.8079 -0.3583 -41.9721 -42.3304
2.1000 -0.6810 -18.9305 61.6059 -0.2414 -43.1155 -43.3568
2.0000 -1.3527 -20.2513 63.3820 -0.1115 -44.3724 -44.4839
1.9000 -2.0619 -21.4908 65.1233 0.0336 -45.7285 -45.6949
1.8000 -2.5976 -22.4704 66.8097 0.1893 -47.1266 -46.9372
1.7000 -2.6410 -22.8478 68.4302 0.3566 -48.5804 -48.2238
1.6000 -1.4837 -21.9593 70.0171 0.5320 -50.0740 -49.5420
1.5000 2.2078 -18.4812 71.5507 0.7148 -51.5770 -50.8622
1.4000 11.2102 -9.6465 73.0708 0.9044 -53.1190 -52.2145
1.3000 31.7170 10.7236 74.5851 1.0990 -54.6911 -53.5922
