# 0-dist(Ang),1-dGtot,2-dGvac,3-dGele,4-dGdis,5-dGcav,6-dGvdw(kT)
13.5000 0.0000 0.0000 0.0000 0.0000 0.0000 0.0000
13.4000 -0.0166 0.0000 0.3495 -0.0134 -0.3526 -0.3661
13.3000 -0.0627 0.0000 0.7072 -0.0307 -0.7391 -0.7698
13.2000 -0.0732 0.0000 1.0627 -0.0474 -1.0884 -1.1358
13.1000 -0.1050 0.0000 1.3835 -0.0624 -1.4260 -1.4884
13.0000 -0.1194 0.0000 1.7526 -0.0796 -1.7923 -1.8719
12.9000 -0.1267 0.0000 2.0849 -0.0974 -2.1141 -2.2115
12.8000 -0.1598 0.0000 2.4160 -0.1110 -2.4647 -2.5758
12.7000 -0.1590 0.0000 2.7783 -0.1268 -2.8105 -2.9373
12.6000 -0.1591 0.0000 3.0903 -0.1399 -3.1095 -3.2495
12.5000 -0.1654 0.0000 3.4318 -0.1553 -3.4421 -3.5973
12.4000 -0.1453 0.0000 3.7728 -0.1715 -3.7468 -3.9183
12.3000 -0.1136 0.0000 4.1167 -0.1864 -4.0441 -4.2305
12.2000 -0.0969 0.0000 4.4503 -0.2023 -4.3451 -4.5474
12.1000 -0.0755 0.0000 4.8107 -0.2170 -4.6693 -4.8863
12.0000 -0.0643 0.0000 5.1891 -0.2336 -5.0199 -5.2536
11.9000 -0.0459 -0.0029 5.5447 -0.2532 -5.3345 -5.5877
11.8000 -0.0443 -0.0082 5.9301 -0.2674 -5.6988 -5.9662
11.7000 -0.0357 -0.0155 6.3366 -0.2853 -6.0715 -6.3568
11.6000 -0.0451 -0.0239 6.6876 -0.3017 -6.4072 -6.7088
11.5000 -0.0585 -0.0336 7.0356 -0.3173 -6.7432 -7.0606
11.4000 -0.0797 -0.0448 7.4029 -0.3328 -7.1050 -7.4378
11.3000 -0.1012 -0.0574 7.7418 -0.3514 -7.4342 -7.7857
11.2000 -0.1349 -0.0708 8.0931 -0.3663 -7.7908 -8.1572
11.1000 -0.1619 -0.0854 8.4242 -0.3815 -8.1192 -8.5007
11.0000 -0.1952 -0.1009 8.7790 -0.3975 -8.4759 -8.8734
10.9000 -0.2169 -0.1107 9.1290 -0.4129 -8.8223 -9.2351
10.8000 -0.2309 -0.1157 9.4696 -0.4307 -9.1540 -9.5848
10.7000 -0.2316 -0.1155 9.8053 -0.4464 -9.4749 -9.9213
10.6000 -0.2393 -0.1110 10.1467 -0.4615 -9.8133 -10.2749
10.5000 -0.2259 -0.1002 10.4842 -0.4789 -10.1309 -10.6098
10.4000 -0.2210 -0.0856 10.8507 -0.4941 -10.4920 -10.9861
10.3000 -0.2242 -0.0703 11.1780 -0.5101 -10.8219 -11.3319
10.2000 -0.2141 -0.0568 11.5121 -0.5234 -11.1460 -11.6694
10.1000 -0.1973 -0.0455 11.8587 -0.5385 -11.4721 -12.0106
10.0000 -0.1854 -0.0368 12.2040 -0.5515 -11.8011 -12.3526
9.9000 -0.1725 -0.0291 12.5426 -0.5657 -12.1202 -12.6860
9.8000 -0.1558 -0.0220 12.8698 -0.5803 -12.4232 -13.0036
9.7000 -0.1573 -0.0200 13.2215 -0.5964 -12.7623 -13.3587
9.6000 -0.1465 -0.0186 13.5994 -0.6117 -13.1158 -13.7275
9.5000 -0.1235 -0.0168 13.9334 -0.6282 -13.4120 -14.0402
9.4000 -0.1273 -0.0168 14.2853 -0.6408 -13.7551 -14.3959
9.3000 -0.1391 -0.0170 14.6402 -0.6525 -14.1099 -14.7624
9.2000 -0.1473 -0.0139 14.9964 -0.6658 -14.4641 -15.1298
9.1000 -0.1601 -0.0087 15.3360 -0.6795 -14.8081 -15.4876
9.0000 -0.1358 -0.0006 15.7173 -0.6955 -15.1571 -15.8526
8.9000 -0.1277 0.0097 16.0629 -0.7099 -15.4904 -16.2004
8.8000 -0.1277 0.0213 16.4203 -0.7262 -15.8431 -16.5693
8.7000 -0.1204 0.0328 16.7693 -0.7377 -16.1847 -16.9223
8.6000 -0.1237 0.0422 17.1305 -0.7562 -16.5400 -17.2962
8.5000 -0.1379 0.0486 17.4680 -0.7731 -16.8814 -17.6545
8.4000 -0.1469 0.0504 17.8099 -0.7898 -17.2175 -18.0072
8.3000 -0.1547 0.0494 18.1951 -0.8052 -17.5940 -18.3992
8.2000 -0.1892 0.0433 18.5556 -0.8254 -17.9628 -18.7882
8.1000 -0.2160 0.0346 18.9176 -0.8376 -18.3306 -19.1682
8.0000 -0.2413 0.0228 19.2953 -0.8533 -18.7059 -19.5592
7.9000 -0.2788 0.0063 19.6919 -0.8666 -19.1102 -19.9768
7.8000 -0.2970 -0.0113 20.0424 -0.8839 -19.4439 -20.3278
7.7000 -0.3415 -0.0309 20.3974 -0.8991 -19.8087 -20.7078
7.6000 -0.3760 -0.0490 20.7546 -0.9155 -20.1658 -21.0813
7.5000 -0.4043 -0.0661 21.1247 -0.9290 -20.5335 -21.4625
7.4000 -0.4300 -0.0820 21.4843 -0.9420 -20.8901 -21.8320
7.3000 -0.4515 -0.0948 21.8551 -0.9598 -21.2516 -22.2114
7.2000 -0.4755 -0.1038 22.2050 -0.9769 -21.5994 -22.5763
7.1000 -0.5083 -0.1111 22.5417 -0.9934 -21.9452 -22.9386
7.0000 -0.5145 -0.1175 22.8670 -1.0097 -22.2541 -23.2638
6.9000 -0.5322 -0.1232 23.1484 -1.0235 -22.5337 -23.5572
6.8000 -0.5258 -0.1318 23.4670 -1.0411 -22.8195 -23.8606
6.7000 -0.5000 -0.1428 23.7794 -1.0577 -23.0785 -24.1362
6.6000 -0.4624 -0.1545 24.0707 -1.0710 -23.3071 -24.3781
6.5000 -0.4211 -0.1668 24.3346 -1.0866 -23.5020 -24.5885
6.4000 -0.3764 -0.1803 24.6730 -1.0989 -23.7697 -24.8686
6.3000 -0.3064 -0.1951 25.0081 -1.1148 -24.0041 -25.1189
6.2000 -0.2465 -0.2107 25.3354 -1.1289 -24.2420 -25.3709
6.1000 -0.1817 -0.2278 25.7236 -1.1441 -24.5330 -25.6771
6.0000 -0.1184 -0.2465 26.1043 -1.1585 -24.8172 -25.9757
5.9000 -0.0538 -0.2672 26.5653 -1.1717 -25.1799 -26.3516
5.8000 -0.0121 -0.2897 27.0404 -1.1844 -25.5781 -26.7625
5.7000 0.0435 -0.3139 27.5331 -1.1961 -25.9793 -27.1754
5.6000 0.0734 -0.3403 28.0784 -1.2067 -26.4576 -27.6643
5.5000 0.0921 -0.3694 28.6495 -1.2140 -26.9737 -28.1877
5.4000 0.0754 -0.4014 29.2589 -1.2222 -27.5596 -28.7818
5.3000 0.0326 -0.4362 29.8600 -1.2269 -28.1639 -29.3908
5.2000 -0.0126 -0.4741 30.5240 -1.2329 -28.8292 -30.0621
5.1000 -0.1054 -0.5157 31.1220 -1.2386 -29.4727 -30.7113
5.0000 -0.2549 -0.5604 31.6649 -1.2449 -30.1142 -31.3591
4.9000 -0.4606 -0.6091 32.1005 -1.2477 -30.7038 -31.9515
4.8000 -0.6793 -0.6623 32.4711 -1.2521 -31.2355 -32.4875
4.7000 -0.8852 -0.7205 32.7404 -1.2575 -31.6471 -32.9047
4.6000 -1.0209 -0.7843 32.9160 -1.2629 -31.8892 -33.1521
4.5000 -1.0801 -0.8545 32.9936 -1.2697 -31.9491 -33.2188
4.4000 -1.0731 -0.9316 33.0268 -1.2772 -31.8907 -33.1679
4.3000 -0.9818 -1.0166 33.0827 -1.2833 -31.7641 -33.0474
4.2000 -0.8824 -1.1105 33.1378 -1.2883 -31.6209 -32.9092
4.1000 -0.7609 -1.2143 33.2392 -1.2904 -31.4949 -32.7853
4.0000 -0.5953 -1.3292 33.3789 -1.2908 -31.3537 -32.6445
3.9000 -0.4516 -1.4567 33.5449 -1.2872 -31.2520 -32.5393
3.8000 -0.2926 -1.5984 33.7609 -1.2739 -31.1807 -32.4546
3.7000 -0.1186 -1.7561 34.0652 -1.2618 -31.1656 -32.4274
3.6000 0.1040 -1.9318 34.3736 -1.2464 -31.0912 -32.3376
3.5000 0.3375 -2.1279 34.7602 -1.2236 -31.0708 -32.2944
3.4000 0.5740 -2.3471 35.2572 -1.2010 -31.1347 -32.3357
3.3000 0.7926 -2.5925 35.8258 -1.1744 -31.2661 -32.4405
3.2000 0.9769 -2.8674 36.5217 -1.1458 -31.5312 -32.6770
3.1000 1.1074 -3.1760 37.3212 -1.1081 -31.9293 -33.0374
3.0000 1.2128 -3.5225 38.2118 -1.0648 -32.4114 -33.4762
2.9000 1.2323 -3.9120 39.1895 -1.0155 -33.0294 -34.0449
2.8000 1.1853 -4.3495 40.2963 -0.9566 -33.8046 -34.7611
2.7000 1.0887 -4.8408 41.5242 -0.8916 -34.7028 -35.5945
2.6000 0.9044 -5.3912 42.9107 -0.8218 -35.7933 -36.6151
2.5000 0.6191 -6.0050 44.4529 -0.7426 -37.0861 -37.8287
2.4000 0.2537 -6.6844 46.0655 -0.6542 -38.4731 -39.1272
2.3000 -0.2345 -7.4264 47.7476 -0.5576 -39.9980 -40.5556
2.2000 -0.8419 -8.2177 49.5192 -0.4543 -41.6890 -42.1433
2.1000 -1.4986 -9.0252 51.3084 -0.3457 -43.4362 -43.7819
2.0000 -2.1885 -9.7765 53.0838 -0.2303 -45.2655 -45.4958
1.9000 -2.7741 -10.3222 54.9109 -0.1068 -47.2558 -47.3627
1.8000 -2.8935 -10.3554 56.7165 0.0203 -49.2749 -49.2546
1.7000 -1.8976 -9.2371 58.5228 0.1490 -51.3325 -51.1835
1.6000 1.6066 -5.5929 60.3063 0.2837 -53.3905 -53.1069
1.5000 10.7198 3.6799 62.0987 0.4196 -55.4785 -55.0589
1.4000 32.8957 26.0323 63.9002 0.5607 -57.5975 -57.0368
1.3000 87.4512 80.7585 65.7018 0.7033 -59.7122 -59.0089
