# 0-dist(Ang),1-dGtot,2-dGvac,3-dGele,4-dGdis,5-dGcav,6-dGvdw(kT)
13.5000 0.0000 0.0000 0.0000 0.0000 0.0000 0.0000
13.4000 -0.0135 0.0000 -0.0163 0.0036 -0.0007 0.0029
13.3000 0.0005 0.0000 -0.0215 0.0041 0.0179 0.0220
13.2000 0.0162 0.0002 -0.0294 0.0069 0.0384 0.0453
13.1000 0.0387 0.0012 -0.0396 0.0115 0.0655 0.0770
13.0000 0.0463 0.0018 -0.0512 0.0138 0.0819 0.0957
12.9000 0.0463 0.0023 -0.0678 0.0175 0.0944 0.1119
12.8000 0.0787 0.0027 -0.0718 0.0219 0.1258 0.1477
12.7000 0.0995 0.0039 -0.0900 0.0248 0.1608 0.1856
12.6000 0.1116 0.0053 -0.1143 0.0296 0.1909 0.2206
12.5000 0.1307 0.0067 -0.1368 0.0351 0.2257 0.2608
12.4000 0.1431 0.0086 -0.1535 0.0402 0.2477 0.2879
12.3000 0.1570 0.0107 -0.1626 0.0446 0.2643 0.3089
12.2000 0.1680 0.0131 -0.1746 0.0508 0.2787 0.3295
12.1000 0.1652 0.0138 -0.1831 0.0553 0.2792 0.3345
12.0000 0.1585 0.0114 -0.1978 0.0622 0.2826 0.3448
11.9000 0.1440 0.0073 -0.2053 0.0696 0.2722 0.3419
11.8000 0.1345 0.0050 -0.2096 0.0770 0.2620 0.3390
11.7000 0.1033 -0.0022 -0.2131 0.0876 0.2310 0.3186
11.6000 0.0842 -0.0067 -0.2169 0.0959 0.2119 0.3078
11.5000 0.0431 -0.0144 -0.2317 0.1034 0.1858 0.2891
11.4000 0.0116 -0.0189 -0.2375 0.1120 0.1559 0.2679
11.3000 -0.0108 -0.0203 -0.2421 0.1199 0.1317 0.2516
11.2000 -0.0434 -0.0198 -0.2440 0.1284 0.0920 0.2204
11.1000 -0.0706 -0.0187 -0.2612 0.1375 0.0720 0.2095
11.0000 -0.0941 -0.0181 -0.2689 0.1434 0.0496 0.1930
10.9000 -0.1180 -0.0143 -0.2827 0.1491 0.0300 0.1791
10.8000 -0.1451 -0.0088 -0.2905 0.1552 -0.0009 0.1544
10.7000 -0.1712 -0.0010 -0.3153 0.1633 -0.0181 0.1452
10.6000 -0.1795 0.0079 -0.3257 0.1688 -0.0303 0.1385
10.5000 -0.1896 0.0167 -0.3322 0.1726 -0.0467 0.1259
10.4000 -0.1922 0.0252 -0.3426 0.1749 -0.0495 0.1253
10.3000 -0.1931 0.0329 -0.3539 0.1770 -0.0489 0.1281
10.2000 -0.1806 0.0394 -0.3745 0.1758 -0.0210 0.1548
10.1000 -0.1643 0.0447 -0.3876 0.1722 0.0066 0.1788
10.0000 -0.1358 0.0489 -0.4090 0.1711 0.0534 0.2245
9.9000 -0.0915 0.0524 -0.4282 0.1668 0.1176 0.2843
9.8000 -0.0524 0.0556 -0.4428 0.1622 0.1728 0.3350
9.7000 0.0115 0.0581 -0.4605 0.1570 0.2571 0.4141
9.6000 0.0884 0.0602 -0.4728 0.1533 0.3480 0.5012
9.5000 0.1707 0.0618 -0.4817 0.1516 0.4392 0.5908
9.4000 0.2696 0.0632 -0.4892 0.1524 0.5433 0.6957
9.3000 0.3767 0.0645 -0.5047 0.1538 0.6632 0.8170
9.2000 0.4914 0.0654 -0.5077 0.1610 0.7727 0.9337
9.1000 0.5994 0.0662 -0.5157 0.1723 0.8766 1.0489
9.0000 0.7018 0.0667 -0.5122 0.1876 0.9598 1.1474
8.9000 0.8042 0.0671 -0.5089 0.2089 1.0372 1.2461
8.8000 0.8774 0.0672 -0.5088 0.2377 1.0815 1.3191
8.7000 0.9338 0.0670 -0.5123 0.2683 1.1110 1.3793
8.6000 0.9562 0.0664 -0.4930 0.3051 1.0778 1.3829
8.5000 0.9364 0.0655 -0.4727 0.3435 1.0003 1.3438
8.4000 0.8854 0.0641 -0.4574 0.3828 0.8959 1.2787
8.3000 0.8070 0.0623 -0.4328 0.4268 0.7509 1.1777
8.2000 0.7091 0.0598 -0.4034 0.4703 0.5825 1.0528
8.1000 0.6048 0.0568 -0.3790 0.5100 0.4171 0.9272
8.0000 0.4803 0.0529 -0.3557 0.5486 0.2345 0.7831
7.9000 0.3427 0.0483 -0.3182 0.5820 0.0309 0.6129
7.8000 0.2154 0.0427 -0.2725 0.6129 -0.1675 0.4454
7.7000 0.0663 0.0361 -0.2386 0.6390 -0.3700 0.2690
7.6000 -0.0851 0.0282 -0.2003 0.6615 -0.5743 0.0872
7.5000 -0.2382 0.0191 -0.1662 0.6773 -0.7682 -0.0909
7.4000 -0.3894 0.0084 -0.1364 0.6874 -0.9485 -0.2611
7.3000 -0.5239 -0.0041 -0.0881 0.6940 -1.1256 -0.4316
7.2000 -0.6591 -0.0185 -0.0410 0.6957 -1.2951 -0.5994
7.1000 -0.7659 -0.0350 0.0009 0.6926 -1.4241 -0.7315
7.0000 -0.8496 -0.0541 0.0456 0.6904 -1.5311 -0.8407
6.9000 -0.8980 -0.0759 0.0949 0.6877 -1.6044 -0.9166
6.8000 -0.9026 -0.1009 0.1254 0.6876 -1.6144 -0.9267
6.7000 -0.8369 -0.1294 0.1600 0.6917 -1.5588 -0.8672
6.6000 -0.6841 -0.1619 0.1776 0.7034 -1.4029 -0.6995
6.5000 -0.4399 -0.1989 0.1799 0.7211 -1.1417 -0.4206
6.4000 -0.0583 -0.2410 0.1553 0.7468 -0.7192 0.0276
6.3000 0.4776 -0.2888 0.1258 0.7835 -0.1426 0.6409
6.2000 1.1777 -0.3431 0.0655 0.8350 0.6205 1.4555
6.1000 2.0576 -0.4047 -0.0338 0.9063 1.5901 2.4964
6.0000 2.9858 -0.4744 -0.1218 1.0203 2.5621 3.5824
5.9000 3.8239 -0.5534 -0.1777 1.1880 3.3673 4.5553
5.8000 4.3595 -0.6428 -0.1494 1.4254 3.7268 5.1521
5.7000 4.6150 -0.7439 -0.0444 1.7093 3.6945 5.4039
5.6000 4.7178 -0.8581 0.1219 2.0180 3.4366 5.4546
5.5000 4.7432 -0.9870 0.3404 2.3459 3.0445 5.3904
5.4000 4.6926 -1.1325 0.5932 2.6886 2.5440 5.2326
5.3000 4.5832 -1.2965 0.8876 3.0436 1.9491 4.9927
5.2000 4.4291 -1.4810 1.2027 3.4090 1.2990 4.7080
5.1000 4.2372 -1.6884 1.5583 3.7862 0.5816 4.3679
5.0000 4.0034 -1.9211 1.9331 4.1709 -0.1791 3.9917
4.9000 3.7123 -2.1814 2.3315 4.5675 -1.0048 3.5626
4.8000 3.3681 -2.4718 2.7515 4.9733 -1.8843 3.0890
4.7000 2.9843 -2.7945 3.2033 5.3853 -2.8093 2.5760
4.6000 2.5474 -3.1512 3.6709 5.8088 -3.7806 2.0281
4.5000 2.0548 -3.5426 4.1600 6.2383 -4.8004 1.4380
4.4000 1.5093 -3.9681 4.6713 6.6734 -5.8667 0.8067
4.3000 0.9185 -4.4247 5.2080 7.1136 -6.9779 0.1357
4.2000 0.2889 -4.9055 5.7739 7.5613 -8.1403 -0.5790
4.1000 -0.3747 -5.3977 6.3572 8.0137 -9.3474 -1.3337
4.0000 -1.0471 -5.8799 6.9669 8.4696 -10.6030 -2.1335
3.9000 -1.7099 -6.3168 7.5941 8.9315 -11.9181 -2.9866
3.8000 -2.2856 -6.6526 8.2430 9.3951 -13.2706 -3.8755
3.7000 -2.6901 -6.8003 8.9105 9.8608 -14.6606 -4.7998
3.6000 -2.7942 -6.6253 9.6009 10.3307 -16.0998 -5.7691
3.5000 -2.3924 -5.9206 10.3085 10.7998 -17.5796 -6.7798
3.4000 -1.1626 -4.3672 11.0333 11.2709 -19.0991 -7.8281
3.3000 1.3893 -1.4736 11.7657 11.7414 -20.6437 -8.9022
3.2000 6.0072 3.5223 12.5013 12.2108 -22.2269 -10.0161
3.1000 13.8978 11.8098 13.2447 12.6776 -23.8340 -11.1564
3.0000 26.9266 25.2618 13.9922 13.1439 -25.4709 -12.3269
2.9000 48.0771 46.8608 14.7333 13.6058 -27.1223 -13.5166
2.8000 82.1566 81.4200 15.4740 14.0634 -28.8003 -14.7369
2.7000 137.0464 136.8262 16.2123 14.5161 -30.5076 -15.9915
2.6000 225.9069 226.2324 16.9382 14.9623 -32.2253 -17.2630
2.5000 371.0983 372.0132 17.6481 15.4018 -33.9640 -18.5622
2.4000 611.5460 613.0888 18.3509 15.8299 -35.7228 -19.8928
2.3000 1016.6359 1018.8557 19.0444 16.2486 -37.5121 -21.2635
2.2000 1713.5410 1716.4969 19.7223 16.6562 -39.3333 -22.6771
2.1000 2942.5096 2946.2325 20.3813 17.0514 -41.1543 -24.1029
2.0000 5172.5118 5177.0756 21.0357 17.4330 -43.0308 -25.5978
1.9000 9353.2356 9358.7006 21.6676 17.7982 -44.9276 -27.1293
1.8000 17486.2008 17492.6399 22.2915 18.1460 -46.8728 -28.7268
1.7000 33980.5655 33988.0441 22.9015 18.4733 -48.8372 -30.3639
1.6000 69037.8923 69046.4948 23.5034 18.7810 -50.8619 -32.0809
1.5000 147586.4576 147596.2531 24.0919 19.0675 -52.9272 -33.8597
1.4000 334380.3637 334391.5325 24.6726 19.3261 -55.0434 -35.7173
1.3000 809626.9764 809639.6767 25.2473 19.5574 -57.2295 -37.6722
