# 0-dist(Ang),1-dGtot,2-dGvac,3-dGele,4-dGdis,5-dGcav,6-dGvdw(kT)
13.5000 0.0000 0.0000 0.0000 0.0000 0.0000 0.0000
13.4000 -0.0014 0.0000 -0.8648 -0.0299 0.8933 0.8634
13.3000 0.0016 0.0000 -1.7281 -0.0603 1.7900 1.7297
13.2000 0.0047 0.0000 -2.5891 -0.0899 2.6837 2.5938
13.1000 0.0193 0.0000 -3.4502 -0.1201 3.5896 3.4695
13.0000 0.0188 0.0000 -4.3222 -0.1512 4.4923 4.3410
12.9000 0.0336 0.0000 -5.1869 -0.1812 5.4017 5.2205
12.8000 0.0476 0.0000 -6.0462 -0.2123 6.3061 6.0938
12.7000 0.0517 0.0000 -6.9194 -0.2427 7.2138 6.9711
12.6000 0.0613 0.0000 -7.7947 -0.2728 8.1289 7.8560
12.5000 0.0796 0.0000 -8.6558 -0.3022 9.0377 8.7355
12.4000 0.0943 0.0000 -9.5259 -0.3313 9.9515 9.6202
12.3000 0.1111 0.0000 -10.3867 -0.3608 10.8587 10.4978
12.2000 0.1212 0.0000 -11.2427 -0.3913 11.7552 11.3639
12.1000 0.1333 0.0000 -12.1164 -0.4201 12.6698 12.2497
12.0000 0.1406 0.0000 -12.9891 -0.4500 13.5797 13.1297
11.9000 0.1477 -0.0027 -13.8511 -0.4798 14.4813 14.0016
11.8000 0.1465 -0.0076 -14.7190 -0.5095 15.3827 14.8732
11.7000 0.1549 -0.0148 -15.5763 -0.5391 16.2851 15.7460
11.6000 0.1534 -0.0242 -16.4279 -0.5692 17.1746 16.6054
11.5000 0.1554 -0.0359 -17.2852 -0.6005 18.0768 17.4764
11.4000 0.1417 -0.0504 -18.1567 -0.6297 18.9784 18.3487
11.3000 0.1284 -0.0674 -19.0270 -0.6597 19.8825 19.2228
11.2000 0.1247 -0.0865 -19.8870 -0.6899 20.7882 20.0982
11.1000 0.1203 -0.1073 -20.7489 -0.7196 21.6961 20.9765
11.0000 0.1145 -0.1291 -21.5960 -0.7498 22.5895 21.8397
10.9000 0.1184 -0.1483 -22.4463 -0.7794 23.4924 22.7130
10.8000 0.1213 -0.1660 -23.3011 -0.8093 24.3976 23.5883
10.7000 0.1320 -0.1818 -24.1582 -0.8391 25.3110 24.4719
10.6000 0.1399 -0.1959 -25.0131 -0.8701 26.2189 25.3488
10.5000 0.1698 -0.2082 -25.8710 -0.9000 27.1488 26.2488
10.4000 0.1815 -0.2188 -26.7325 -0.9296 28.0621 27.1325
10.3000 0.2029 -0.2270 -27.5902 -0.9602 28.9802 28.0200
10.2000 0.2229 -0.2342 -28.4426 -0.9900 29.8896 28.8996
10.1000 0.2402 -0.2426 -29.2932 -1.0187 30.7946 29.7759
10.0000 0.2513 -0.2524 -30.1457 -1.0485 31.6978 30.6493
9.9000 0.2704 -0.2640 -30.9927 -1.0780 32.6050 31.5270
9.8000 0.2890 -0.2787 -31.8442 -1.1068 33.5187 32.4119
9.7000 0.2885 -0.2973 -32.7024 -1.1364 34.4244 33.2880
9.6000 0.2921 -0.3191 -33.5485 -1.1667 35.3263 34.1596
9.5000 0.2865 -0.3441 -34.4074 -1.1971 36.2348 35.0378
9.4000 0.2860 -0.3726 -35.2514 -1.2280 37.1378 35.9098
9.3000 0.2855 -0.4046 -36.0949 -1.2582 38.0431 36.7849
9.2000 0.2810 -0.4395 -36.9593 -1.2887 38.9684 37.6797
9.1000 0.2817 -0.4778 -37.7995 -1.3186 39.8776 38.5589
9.0000 0.2725 -0.5182 -38.6370 -1.3484 40.7760 39.4276
8.9000 0.2589 -0.5603 -39.4838 -1.3780 41.6810 40.3030
8.8000 0.2588 -0.6003 -40.3122 -1.4084 42.5797 41.1713
8.7000 0.2602 -0.6358 -41.1575 -1.4385 43.4920 42.0535
8.6000 0.2669 -0.6686 -41.9944 -1.4681 44.3981 42.9300
8.5000 0.2818 -0.6988 -42.8267 -1.4985 45.3058 43.8073
8.4000 0.2959 -0.7266 -43.6708 -1.5285 46.2219 44.6934
8.3000 0.3049 -0.7522 -44.5055 -1.5589 47.1215 45.5626
8.2000 0.3225 -0.7760 -45.3451 -1.5882 48.0318 46.4436
8.1000 0.3381 -0.7985 -46.1731 -1.6176 48.9274 47.3097
8.0000 0.3501 -0.8214 -47.0009 -1.6465 49.8191 48.1725
7.9000 0.3533 -0.8460 -47.8235 -1.6756 50.6985 49.0229
7.8000 0.3547 -0.8730 -48.6490 -1.7045 51.5813 49.8768
7.7000 0.3505 -0.9027 -49.4686 -1.7350 52.4570 50.7219
7.6000 0.3460 -0.9347 -50.3128 -1.7647 53.3583 51.5936
7.5000 0.3277 -0.9691 -51.1680 -1.7932 54.2581 52.4649
7.4000 0.3083 -1.0047 -52.0301 -1.8214 55.1646 53.3431
7.3000 0.2948 -1.0425 -52.8997 -1.8510 56.0882 54.2372
7.2000 0.2906 -1.0822 -53.7734 -1.8811 57.0274 55.1463
7.1000 0.2925 -1.1237 -54.6526 -1.9095 57.9786 56.0691
7.0000 0.2954 -1.1677 -55.5458 -1.9371 58.9462 57.0090
6.9000 0.3168 -1.2135 -56.4474 -1.9649 59.9427 57.9778
6.8000 0.3373 -1.2614 -57.3376 -1.9925 60.9291 58.9366
6.7000 0.3614 -1.3088 -58.2150 -2.0191 61.9046 59.8855
6.6000 0.3946 -1.3564 -59.1098 -2.0463 62.9073 60.8610
6.5000 0.4330 -1.4053 -59.9814 -2.0750 63.8950 61.8201
6.4000 0.4786 -1.4557 -60.8267 -2.1028 64.8643 62.7615
6.3000 0.5223 -1.5078 -61.6369 -2.1304 65.7980 63.6675
6.2000 0.5727 -1.5610 -62.4324 -2.1591 66.7258 64.5666
6.1000 0.6214 -1.6154 -63.2171 -2.1895 67.6439 65.4544
6.0000 0.6585 -1.6714 -63.9769 -2.2185 68.5258 66.3073
5.9000 0.6877 -1.7318 -64.7026 -2.2480 69.3704 67.1224
5.8000 0.7055 -1.7954 -65.4002 -2.2779 70.1795 67.9016
5.7000 0.7071 -1.8627 -66.0801 -2.3063 70.9567 68.6504
5.6000 0.6884 -1.9338 -66.7528 -2.3349 71.7104 69.3755
5.5000 0.6437 -2.0092 -67.3882 -2.3625 72.4042 70.0417
5.4000 0.5690 -2.0894 -68.0099 -2.3892 73.0580 70.6688
5.3000 0.4463 -2.1746 -68.6190 -2.4165 73.6569 71.2404
5.2000 0.2766 -2.2633 -69.2419 -2.4417 74.2241 71.7824
5.1000 0.0724 -2.3569 -69.9026 -2.4681 74.8005 72.3324
5.0000 -0.1504 -2.4562 -70.5982 -2.4935 75.3983 72.9048
4.9000 -0.3648 -2.5623 -71.3578 -2.5184 76.0744 73.5561
4.8000 -0.5318 -2.6754 -72.1835 -2.5414 76.8693 74.3279
4.7000 -0.6195 -2.7961 -73.0689 -2.5618 77.8079 75.2461
4.6000 -0.5871 -2.9250 -74.0201 -2.5800 78.9387 76.3587
4.5000 -0.4234 -3.0632 -75.0186 -2.5945 80.2536 77.6591
4.4000 -0.1661 -3.2120 -76.0485 -2.6070 81.7022 79.0952
4.3000 0.1731 -3.3723 -77.0829 -2.6172 83.2463 80.6291
4.2000 0.5045 -3.5452 -78.1273 -2.6252 84.8030 82.1778
4.1000 0.8170 -3.7319 -79.1471 -2.6301 86.3270 83.6969
4.0000 1.1132 -3.9340 -80.1485 -2.6309 87.8273 85.1964
3.9000 1.3783 -4.1530 -81.1323 -2.6280 89.2924 86.6644
3.8000 1.6348 -4.3908 -82.0753 -2.6189 90.7207 88.1018
3.7000 1.8581 -4.6494 -82.9408 -2.6059 92.0551 89.4492
3.6000 2.0325 -4.9309 -83.7429 -2.5867 93.2940 90.7072
3.5000 2.1673 -5.2381 -84.4373 -2.5639 94.4075 91.8436
3.4000 2.2326 -5.5737 -85.0520 -2.5348 95.3938 92.8591
3.3000 2.2299 -5.9409 -85.5748 -2.5013 96.2478 93.7464
3.2000 2.1586 -6.3432 -85.9876 -2.4642 96.9544 94.4902
3.1000 1.9985 -6.7843 -86.3247 -2.4212 97.5296 95.1084
3.0000 1.7641 -7.2683 -86.5687 -2.3745 97.9764 95.6020
2.9000 1.4548 -7.7989 -86.7311 -2.3237 98.3096 95.9858
2.8000 1.0598 -8.3800 -86.8251 -2.2683 98.5342 96.2659
2.7000 0.5749 -9.0142 -86.8584 -2.2084 98.6570 96.4486
2.6000 -0.0051 -9.7025 -86.8192 -2.1438 98.6614 96.5176
2.5000 -0.6513 -10.4422 -86.7332 -2.0771 98.6023 96.5252
2.4000 -1.3820 -11.2241 -86.5872 -2.0057 98.4360 96.4303
2.3000 -2.1645 -12.0274 -86.4130 -1.9312 98.2081 96.2769
2.2000 -2.9631 -12.8108 -86.2062 -1.8542 97.9092 96.0550
2.1000 -3.6862 -13.4973 -85.9723 -1.7744 97.5588 95.7843
2.0000 -4.2086 -13.9455 -85.7115 -1.6926 97.1421 95.4495
1.9000 -4.2731 -13.8990 -85.4519 -1.6071 96.6860 95.0789
1.8000 -3.4109 -12.8871 -85.1806 -1.5204 96.1784 94.6580
1.7000 -0.7445 -10.0315 -84.9088 -1.4309 95.6279 94.1971
1.6000 5.4255 -3.6415 -84.6400 -1.3394 95.0475 93.7081
1.5000 18.4756 9.6810 -84.3881 -1.2465 94.4303 93.1838
1.4000 45.6575 37.1778 -84.1529 -1.1524 93.7861 92.6338
1.3000 103.6284 95.5114 -83.9478 -1.0580 93.1240 92.0660
