# 0-dist(Ang),1-dGtot,2-dGvac,3-dGele,4-dGdis,5-dGcav,6-dGvdw(kT)
13.5000 0.0000 0.0000 0.0000 0.0000 0.0000 0.0000
13.4000 0.0305 0.0000 -3.5539 -0.0711 3.6556 3.5845
13.3000 0.0490 0.0000 -7.0993 -0.1421 7.2903 7.1482
13.2000 0.0745 0.0000 -10.6486 -0.2133 10.9364 10.7231
13.1000 0.1077 0.0000 -14.1878 -0.2854 14.5808 14.2955
13.0000 0.1600 0.0000 -17.7125 -0.3575 18.2301 17.8726
12.9000 0.2058 0.0000 -21.2308 -0.4292 21.8658 21.4366
12.8000 0.2347 -0.0078 -24.7694 -0.5011 25.5130 25.0119
12.7000 0.2698 -0.0264 -28.3095 -0.5723 29.1780 28.6057
12.6000 0.3009 -0.0614 -31.8152 -0.6443 32.8218 32.1775
12.5000 0.3237 -0.1108 -35.3166 -0.7158 36.4669 35.7511
12.4000 0.3377 -0.1705 -38.8011 -0.7883 40.0976 39.3093
12.3000 0.3547 -0.2399 -42.2738 -0.8603 43.7286 42.8683
12.2000 0.3814 -0.3128 -45.7542 -0.9318 47.3801 46.4484
12.1000 0.4077 -0.3909 -49.2200 -1.0040 51.0227 50.0187
12.0000 0.4435 -0.4745 -52.6732 -1.0766 54.6678 53.5912
11.9000 0.4602 -0.5662 -56.1265 -1.1495 58.3025 57.1530
11.8000 0.4823 -0.6650 -59.5863 -1.2211 61.9548 60.7336
11.7000 0.5011 -0.7713 -63.0355 -1.2938 65.6018 64.3079
11.6000 0.5285 -0.8853 -66.4843 -1.3659 69.2641 67.8982
11.5000 0.5712 -1.0073 -69.9258 -1.4390 72.9433 71.5043
11.4000 0.5975 -1.1373 -73.3278 -1.5110 76.5737 75.0627
11.3000 0.6338 -1.2755 -76.7235 -1.5831 80.2159 78.6328
11.2000 0.6740 -1.4221 -80.1112 -1.6553 83.8627 82.2074
11.1000 0.7029 -1.5774 -83.5017 -1.7271 87.5091 85.7820
11.0000 0.7309 -1.7426 -86.8664 -1.7996 91.1395 89.3400
10.9000 0.7557 -1.9210 -90.2336 -1.8713 94.7815 92.9103
10.8000 0.7823 -2.1132 -93.5853 -1.9429 98.4237 96.4808
10.7000 0.8207 -2.3218 -96.9301 -2.0147 102.0873 100.0726
10.6000 0.8523 -2.5479 -100.2359 -2.0868 105.7230 103.6362
10.5000 0.8744 -2.7912 -103.5492 -2.1583 109.3733 107.2149
10.4000 0.8988 -3.0499 -106.8590 -2.2299 113.0376 110.8077
10.3000 0.9146 -3.3230 -110.1554 -2.3025 116.6955 114.3930
10.2000 0.9251 -3.6114 -113.4280 -2.3739 120.3385 117.9646
10.1000 0.9613 -3.9136 -116.6797 -2.4459 124.0005 121.5546
10.0000 0.9909 -4.2313 -119.8999 -2.5170 127.6391 125.1220
9.9000 1.0191 -4.5657 -123.1360 -2.5885 131.3093 128.7208
9.8000 1.0411 -4.9162 -126.3611 -2.6594 134.9777 132.3183
9.7000 1.0769 -5.2839 -129.5525 -2.7312 138.6444 135.9132
9.6000 1.0906 -5.6692 -132.7443 -2.8031 142.3073 139.5041
9.5000 1.1078 -6.0726 -135.9162 -2.8748 145.9713 143.0966
9.4000 1.1338 -6.4945 -139.0636 -2.9462 149.6381 146.6919
9.3000 1.1555 -6.9355 -142.1973 -3.0171 153.3054 150.2884
9.2000 1.1857 -7.3961 -145.3118 -3.0882 156.9819 153.8937
9.1000 1.2034 -7.8764 -148.3953 -3.1595 160.6347 157.4752
9.0000 1.2124 -8.3763 -151.4532 -3.2302 164.2722 161.0420
8.9000 1.2400 -8.8956 -154.4862 -3.3022 167.9242 164.6220
8.8000 1.2685 -9.4351 -157.5057 -3.3726 171.5820 168.2093
8.7000 1.2906 -9.9957 -160.4927 -3.4430 175.2220 171.7790
8.6000 1.3357 -10.5780 -163.4738 -3.5144 178.9019 175.3875
8.5000 1.3744 -11.1834 -166.4163 -3.5863 182.5603 178.9740
8.4000 1.4005 -11.8136 -169.3326 -3.6584 186.2051 182.5467
8.3000 1.4196 -12.4717 -172.2251 -3.7308 189.8473 186.1164
8.2000 1.4498 -13.1557 -175.0877 -3.8033 193.4965 189.6931
8.1000 1.4746 -13.8673 -177.9384 -3.8760 197.1563 193.2803
8.0000 1.4921 -14.6070 -180.7454 -3.9470 200.7917 196.8447
7.9000 1.5108 -15.3747 -183.5264 -4.0190 204.4310 200.4120
7.8000 1.5358 -16.1715 -186.2817 -4.0916 208.0809 203.9893
7.7000 1.5493 -17.0001 -188.9823 -4.1639 211.6958 207.5319
7.6000 1.5846 -17.8579 -191.6426 -4.2368 215.3220 211.0852
7.5000 1.5950 -18.7474 -194.2959 -4.3090 218.9475 214.6386
7.4000 1.6181 -19.6709 -196.9087 -4.3806 222.5787 218.1981
7.3000 1.6218 -20.6296 -199.4912 -4.4519 226.1948 221.7429
7.2000 1.6238 -21.6249 -202.0329 -4.5237 229.8056 225.2819
7.1000 1.6503 -22.6585 -204.5350 -4.5939 233.4380 228.8441
7.0000 1.6547 -23.7320 -207.0030 -4.6636 237.0535 232.3899
6.9000 1.6542 -24.8469 -209.4273 -4.7322 240.6608 235.9286
6.8000 1.6546 -26.0053 -211.8085 -4.8008 244.2694 239.4686
6.7000 1.6424 -27.2084 -214.1591 -4.8676 247.8777 243.0102
6.6000 1.6350 -28.4584 -216.4295 -4.9334 251.4565 246.5231
6.5000 1.6109 -29.7581 -218.6571 -4.9991 255.0255 250.0264
6.4000 1.6061 -31.1098 -220.8219 -5.0644 258.6024 253.5380
6.3000 1.6058 -32.5143 -222.9598 -5.1296 262.2095 257.0799
6.2000 1.6336 -33.9746 -225.0407 -5.1941 265.8430 260.6490
6.1000 1.6919 -35.4942 -227.0704 -5.2586 269.5153 264.2566
6.0000 1.7950 -37.0767 -229.0755 -5.3227 273.2700 267.9473
5.9000 1.9510 -38.7240 -231.0452 -5.3855 277.1058 271.7203
5.8000 2.1512 -40.4398 -232.9366 -5.4474 280.9752 275.5278
5.7000 2.3276 -42.2264 -234.7656 -5.5089 284.8287 279.3198
5.6000 2.4908 -44.0878 -236.5108 -5.5697 288.6593 283.0896
5.5000 2.6141 -46.0280 -238.1782 -5.6308 292.4514 286.8206
5.4000 2.7414 -48.0515 -239.7622 -5.6913 296.2466 290.5553
5.3000 2.8517 -50.1629 -241.2366 -5.7507 300.0022 294.2515
5.2000 2.9736 -52.3673 -242.6017 -5.8081 303.7510 297.9429
5.1000 3.0780 -54.6699 -243.8323 -5.8647 307.4453 301.5806
5.0000 3.1768 -57.0761 -244.9605 -5.9185 311.1324 305.2140
4.9000 3.2612 -59.5922 -245.9270 -5.9714 314.7524 308.7810
4.8000 3.3362 -62.2243 -246.7383 -6.0215 318.3209 312.2994
4.7000 3.3950 -64.9795 -247.4029 -6.0687 321.8469 315.7782
4.6000 3.4473 -67.8656 -247.9182 -6.1128 325.3447 319.2319
4.5000 3.4847 -70.8899 -248.2989 -6.1521 328.8264 322.6743
4.4000 3.5025 -74.0605 -248.5345 -6.1869 332.2853 326.0984
4.3000 3.5366 -77.3852 -248.6307 -6.2188 335.7721 329.5533
4.2000 3.5436 -80.8715 -248.5119 -6.2489 339.1767 332.9278
4.1000 3.5385 -84.5264 -248.1937 -6.2739 342.5332 336.2593
4.0000 3.5009 -88.3550 -247.7187 -6.2943 345.8698 339.5754
3.9000 3.4376 -92.3599 -246.9844 -6.3125 349.0951 342.7826
3.8000 3.3304 -96.5382 -246.0111 -6.3266 352.2071 345.8805
3.7000 3.1612 -100.8787 -244.7983 -6.3378 355.1769 348.8391
3.6000 2.9371 -105.3562 -243.2801 -6.3463 357.9208 351.5744
3.5000 2.7031 -109.9226 -241.4517 -6.3528 360.4313 354.0785
3.4000 2.4912 -114.4932 -239.3618 -6.3544 362.7017 356.3473
3.3000 2.4004 -118.9230 -236.9534 -6.3534 364.6314 358.2780
3.2000 2.6556 -122.9698 -234.3003 -6.3494 366.2761 359.9267
3.1000 3.6569 -126.2310 -231.4616 -6.3407 367.6913 361.3506
3.0000 6.0214 -128.0405 -228.3687 -6.3282 368.7598 362.4316
2.9000 10.8543 -127.2929 -225.1355 -6.3112 369.5950 363.2838
2.8000 19.9643 -122.1454 -221.8135 -6.2905 370.2147 363.9242
2.7000 36.4591 -109.5032 -218.4253 -6.2654 370.6538 364.3885
2.6000 65.5583 -84.1221 -214.9937 -6.2368 370.9118 364.6750
2.5000 116.2416 -37.0177 -211.5510 -6.2029 371.0141 364.8112
2.4000 204.0969 47.3936 -208.1215 -6.1657 370.9914 364.8257
2.3000 356.5195 196.5427 -204.7887 -6.1227 370.8892 364.7665
2.2000 622.6782 459.5982 -201.5264 -6.0767 370.6841 364.6074
2.1000 1092.8639 926.8575 -198.3899 -6.0266 370.4240 364.3974
2.0000 1939.0992 1770.3400 -195.3637 -5.9731 370.0970 364.1239
1.9000 3509.8976 3338.5875 -192.4801 -5.9129 369.7041 363.7912
1.8000 6594.5376 6420.8943 -189.7841 -5.8509 369.2799 363.4290
1.7000 13365.3033 13189.5491 -187.2951 -5.7853 368.8373 363.0519
1.6000 31844.9316 31667.2905 -185.0243 -5.7163 368.3835 362.6671
1.5000 104216.9217 104037.6182 -182.9701 -5.6453 367.9282 362.2829
1.4000 548838.6810 548657.9260 -181.1665 -5.5710 367.4980 361.9270
1.3000 4874302.8834 4874120.8876 -179.5898 -5.4937 367.0800 361.5863
