# 0-dist(Ang),1-dGtot,2-dGvac,3-dGele,4-dGdis,5-dGcav,6-dGvdw(kT)
13.5000 0.0000 0.0000 0.0000 0.0000 0.0000 0.0000
13.4000 -0.0187 0.0000 0.3595 -0.0180 -0.3602 -0.3782
13.3000 -0.0445 0.0000 0.7106 -0.0323 -0.7228 -0.7551
13.2000 -0.0599 0.0000 1.0520 -0.0499 -1.0621 -1.1120
13.1000 -0.0649 0.0000 1.3926 -0.0680 -1.3895 -1.4575
13.0000 -0.0844 0.0000 1.7265 -0.0825 -1.7284 -1.8109
12.9000 -0.0987 0.0000 2.0502 -0.1026 -2.0461 -2.1487
12.8000 -0.1042 0.0000 2.3773 -0.1159 -2.3655 -2.4814
12.7000 -0.1001 0.0000 2.7186 -0.1322 -2.6865 -2.8187
12.6000 -0.0734 0.0000 3.0459 -0.1447 -2.9745 -3.1192
12.5000 -0.0663 0.0000 3.3675 -0.1573 -3.2764 -3.4337
12.4000 -0.0399 0.0000 3.6705 -0.1694 -3.5409 -3.7103
12.3000 -0.0174 0.0000 3.9999 -0.1857 -3.8315 -4.0173
12.2000 0.0089 0.0000 4.3381 -0.2006 -4.1285 -4.3290
12.1000 0.0150 0.0000 4.6921 -0.2175 -4.4595 -4.6770
12.0000 0.0553 0.0000 5.0456 -0.2340 -4.7562 -4.9901
11.9000 0.0587 -0.0027 5.3909 -0.2487 -5.0804 -5.3291
11.8000 0.0624 -0.0075 5.7706 -0.2651 -5.4353 -5.7004
11.7000 0.0413 -0.0153 6.1576 -0.2776 -5.8234 -6.1009
11.6000 0.0150 -0.0266 6.5418 -0.2922 -6.2080 -6.5002
11.5000 0.0002 -0.0413 6.8948 -0.3071 -6.5462 -6.8533
11.4000 -0.0277 -0.0590 7.2867 -0.3188 -6.9365 -7.2553
11.3000 -0.0652 -0.0790 7.6741 -0.3365 -7.3239 -7.6604
11.2000 -0.1098 -0.1010 8.0514 -0.3529 -7.7074 -8.0603
11.1000 -0.1308 -0.1252 8.4133 -0.3687 -8.0501 -8.4188
11.0000 -0.1519 -0.1514 8.7475 -0.3863 -8.3617 -8.7480
10.9000 -0.1942 -0.1736 9.1027 -0.4034 -8.7198 -9.1232
10.8000 -0.2319 -0.1927 9.4674 -0.4189 -9.0876 -9.5065
10.7000 -0.2480 -0.2065 9.7948 -0.4343 -9.4020 -9.8363
10.6000 -0.2437 -0.2146 10.1241 -0.4510 -9.7021 -10.1532
10.5000 -0.2311 -0.2173 10.4708 -0.4644 -10.0201 -10.4845
10.4000 -0.2264 -0.2155 10.7806 -0.4771 -10.3142 -10.7912
10.3000 -0.2010 -0.2131 11.1128 -0.4932 -10.6073 -11.1005
10.2000 -0.1576 -0.2143 11.4573 -0.5074 -10.8931 -11.4005
10.1000 -0.1225 -0.2203 11.8041 -0.5225 -11.1837 -11.7062
10.0000 -0.1027 -0.2315 12.1826 -0.5381 -11.5156 -12.0537
9.9000 -0.0890 -0.2450 12.5365 -0.5515 -11.8288 -12.3804
9.8000 -0.0525 -0.2610 12.9341 -0.5663 -12.1592 -12.7255
9.7000 -0.0236 -0.2843 13.2920 -0.5846 -12.4465 -13.0311
9.6000 -0.0086 -0.3101 13.6546 -0.5981 -12.7548 -13.3529
9.5000 0.0207 -0.3353 14.0250 -0.6105 -13.0583 -13.6689
9.4000 0.0256 -0.3639 14.3832 -0.6188 -13.3746 -13.9933
9.3000 0.0238 -0.3910 14.7706 -0.6337 -13.7219 -14.3557
9.2000 0.0294 -0.4158 15.1402 -0.6459 -14.0489 -14.6949
9.1000 0.0185 -0.4378 15.5160 -0.6568 -14.4028 -15.0596
9.0000 -0.0076 -0.4582 15.8839 -0.6704 -14.7627 -15.4331
8.9000 -0.0503 -0.4780 16.2282 -0.6841 -15.1162 -15.8004
8.8000 -0.0772 -0.4921 16.6027 -0.6997 -15.4880 -16.1877
8.7000 -0.1008 -0.5020 16.9975 -0.7127 -15.8834 -16.5962
8.6000 -0.1315 -0.5123 17.3540 -0.7262 -16.2468 -16.9730
8.5000 -0.1571 -0.5246 17.7138 -0.7390 -16.6070 -17.3460
8.4000 -0.1776 -0.5398 18.0816 -0.7522 -16.9669 -17.7191
8.3000 -0.2039 -0.5616 18.4369 -0.7635 -17.3155 -18.0790
8.2000 -0.2363 -0.5931 18.7737 -0.7784 -17.6381 -18.4166
8.1000 -0.2566 -0.6295 19.1556 -0.7926 -17.9899 -18.7824
8.0000 -0.2682 -0.6715 19.5127 -0.8043 -18.3049 -19.1091
7.9000 -0.2881 -0.7194 19.8823 -0.8179 -18.6329 -19.4508
7.8000 -0.3138 -0.7710 20.2926 -0.8293 -19.0059 -19.8352
7.7000 -0.3389 -0.8276 20.6763 -0.8432 -19.3442 -20.1874
7.6000 -0.3424 -0.8867 21.0768 -0.8585 -19.6737 -20.5322
7.5000 -0.3588 -0.9444 21.4497 -0.8730 -19.9907 -20.8637
7.4000 -0.3804 -1.0010 21.8418 -0.8913 -20.3296 -21.2209
7.3000 -0.4286 -1.0564 22.2536 -0.9064 -20.7191 -21.6255
7.2000 -0.4497 -1.1072 22.6785 -0.9260 -21.0948 -22.0208
7.1000 -0.4727 -1.1553 23.0653 -0.9453 -21.4372 -22.3825
7.0000 -0.5279 -1.2007 23.4284 -0.9655 -21.7900 -22.7555
6.9000 -0.5626 -1.2484 23.8087 -0.9841 -22.1386 -23.1227
6.8000 -0.6062 -1.3052 24.1547 -1.0034 -22.4522 -23.4556
6.7000 -0.6493 -1.3669 24.4807 -1.0252 -22.7375 -23.7628
6.6000 -0.6616 -1.4340 24.8492 -1.0460 -23.0305 -24.0766
6.5000 -0.6528 -1.5072 25.1716 -1.0669 -23.2500 -24.3169
6.4000 -0.6139 -1.5842 25.4807 -1.0846 -23.4256 -24.5102
6.3000 -0.5541 -1.6673 25.8151 -1.1006 -23.6011 -24.7017
6.2000 -0.4900 -1.7558 26.1469 -1.1128 -23.7682 -24.8809
6.1000 -0.3828 -1.8482 26.4805 -1.1215 -23.8935 -25.0150
6.0000 -0.2695 -1.9463 26.8664 -1.1288 -24.0607 -25.1895
5.9000 -0.1308 -2.0477 27.2815 -1.1396 -24.2249 -25.3645
5.8000 0.0287 -2.1543 27.7308 -1.1478 -24.3998 -25.5477
5.7000 0.1880 -2.2668 28.2306 -1.1539 -24.6218 -25.7757
5.6000 0.3307 -2.3842 28.7881 -1.1584 -24.9148 -26.0732
5.5000 0.4940 -2.5022 29.3492 -1.1603 -25.1928 -26.3531
5.4000 0.6202 -2.6235 30.0104 -1.1607 -25.6059 -26.7666
5.3000 0.7356 -2.7485 30.7263 -1.1614 -26.0808 -27.2422
5.2000 0.8024 -2.8766 31.4740 -1.1585 -26.6367 -27.7952
5.1000 0.8183 -3.0114 32.2228 -1.1538 -27.2395 -28.3932
5.0000 0.7727 -3.1535 32.9675 -1.1468 -27.8945 -29.0413
4.9000 0.6429 -3.3046 33.7064 -1.1425 -28.6164 -29.7589
4.8000 0.4037 -3.4664 34.3605 -1.1372 -29.3532 -30.4903
4.7000 0.1144 -3.6386 34.9679 -1.1338 -30.0812 -31.2150
4.6000 -0.2332 -3.8218 35.4454 -1.1286 -30.7284 -31.8569
4.5000 -0.5730 -4.0171 35.8563 -1.1284 -31.2839 -32.4124
4.4000 -0.8963 -4.2256 36.2197 -1.1280 -31.7625 -32.8905
4.3000 -1.2474 -4.4484 36.5648 -1.1293 -32.2347 -33.3640
4.2000 -1.5579 -4.6869 36.8962 -1.1322 -32.6352 -33.7674
4.1000 -1.8344 -4.9425 37.1688 -1.1363 -32.9246 -34.0609
4.0000 -2.0779 -5.2168 37.4387 -1.1396 -33.1604 -34.2999
3.9000 -2.2201 -5.5117 37.6579 -1.1397 -33.2268 -34.3665
3.8000 -2.3198 -5.8290 37.9050 -1.1381 -33.2578 -34.3959
3.7000 -2.3083 -6.1710 38.2138 -1.1361 -33.2151 -34.3512
3.6000 -2.2283 -6.5403 38.5427 -1.1228 -33.1081 -34.2309
3.5000 -2.0724 -6.9394 38.9419 -1.1063 -32.9685 -34.0749
3.4000 -1.8541 -7.3717 39.4667 -1.0873 -32.8618 -33.9491
3.3000 -1.5376 -7.8405 40.0834 -1.0641 -32.7164 -33.7805
3.2000 -1.1818 -8.3496 40.8896 -1.0349 -32.6869 -33.7219
3.1000 -0.7891 -8.9035 41.8484 -1.0021 -32.7320 -33.7341
3.0000 -0.3559 -9.5068 42.9647 -0.9631 -32.8509 -33.8140
2.9000 0.0510 -10.1646 44.2845 -0.9188 -33.1502 -34.0691
2.8000 0.4307 -10.8824 45.7652 -0.8671 -33.5851 -34.4523
2.7000 0.7422 -11.6659 47.4276 -0.8098 -34.2098 -35.0196
2.6000 0.9633 -12.5203 49.2312 -0.7448 -35.0030 -35.7477
2.5000 1.0940 -13.4498 51.1894 -0.6707 -35.9750 -36.6456
2.4000 1.1063 -14.4559 53.2434 -0.5867 -37.0947 -37.6815
2.3000 0.9719 -15.5350 55.4366 -0.4931 -38.4368 -38.9299
2.2000 0.6694 -16.6726 57.6506 -0.3907 -39.9180 -40.3088
2.1000 0.2151 -17.8341 59.7937 -0.2744 -41.4703 -41.7447
2.0000 -0.3892 -18.9450 61.8597 -0.1481 -43.1562 -43.3043
1.9000 -0.9026 -19.8527 63.8219 -0.0115 -44.8605 -44.8720
1.8000 -1.0479 -20.2469 65.7838 0.1447 -46.7299 -46.5852
1.7000 -0.0906 -19.4835 67.7235 0.3051 -48.6361 -48.3310
1.6000 3.3485 -16.1817 69.6165 0.4666 -50.5534 -50.0867
1.5000 12.4001 -7.2304 71.5407 0.6425 -52.5530 -51.9105
1.4000 34.5077 14.8327 73.4236 0.8203 -54.5693 -53.7489
1.3000 88.9766 69.3161 75.3277 0.9989 -56.6663 -55.6675
